File: data/MOCOF-1/PXRD/PXRD_KE-219_Co-Ka1_film-3mm_5s-deg.xyd
    1.500    2.8785
    1.635    2.6003
    1.770    2.4077
    1.905    2.2472
    2.040    2.0546
    2.175    2.0760
    2.310    1.7764
    2.445    2.0974
    2.580    1.6372
    2.715    1.9369
    2.850    1.7335
    2.985    1.5730
    3.120    1.5088
    3.255    1.5302
    3.390    1.5623
    3.525    1.6800
    3.660    1.6158
    3.795    1.7549
    3.930    2.0867
    4.065    2.0867
    4.200    1.6693
    4.335    1.5088
    4.470    1.8085
    4.605    1.6051
    4.740    1.7978
    4.875    1.6051
    5.010    1.6800
    5.145    1.3590
    5.280    1.4660
    5.415    1.4874
    5.550    1.5409
    5.685    1.5623
    5.820    1.7657
    5.955    1.6586
    6.090    1.7549
    6.225    1.9797
    6.360    2.0332
    6.495    2.2365
    6.630    2.0439
    6.765    1.5837
    6.900    1.6800
    7.035    1.7335
    7.170    1.5837
    7.305    1.6372
    7.440    1.4232
    7.575    1.5730
    7.710    1.3483
    7.845    1.4874
    7.980    1.3911
    8.115    1.3376
    8.250    1.3269
    8.385    1.0273
    8.520    1.1236
    8.655    1.1985
    8.790    1.0594
    8.925    1.0915
    9.060    1.2092
    9.195    0.9631
    9.330    0.9096
    9.465    0.8561
    9.600    0.9417
    9.735    0.9952
    9.870    0.8989
   10.005    0.9096
   10.140    0.7170
   10.275    0.7705
   10.410    0.8775
   10.545    0.9096
   10.680    0.8561
   10.815    0.8347
   10.950    0.8989
   11.085    0.8454
   11.220    0.9203
   11.355    0.8133
   11.490    0.9631
   11.625    0.7705
   11.760    0.8561
   11.895    0.7812
   12.030    0.7919
   12.165    0.7598
   12.300    0.8347
   12.435    0.9845
   12.570    0.8775
   12.705    0.8668
   12.840    1.0059
   12.975    0.7598
   13.110    0.8668
   13.245    0.9203
   13.380    0.8668
   13.515    0.8026
   13.650    0.9310
   13.785    0.8240
   13.920    0.8882
   14.055    0.8882
   14.190    0.9952
   14.325    0.8989
   14.460    0.8561
   14.595    0.8454
   14.730    0.8989
   14.865    0.8775
   15.000    0.7705
   15.135    0.8240
   15.270    0.7705
   15.405    0.7598
   15.540    0.7491
   15.675    0.8347
   15.810    0.9203
   15.945    0.7063
   16.080    0.9631
   16.215    0.8775
   16.350    0.9096
   16.485    0.9738
   16.620    0.8026
   16.755    0.8454
   16.890    0.9417
   17.025    0.9845
   17.160    0.8454
   17.295    0.9417
   17.430    0.7598
   17.565    0.7170
   17.700    0.9631
   17.835    0.8775
   17.970    0.8454
   18.105    0.9738
   18.240    0.9310
   18.375    0.7812
   18.510    0.6956
   18.645    0.9417
   18.780    0.9738
   18.915    0.8454
   19.050    0.8454
   19.185    0.6956
   19.320    0.9096
   19.455    0.7277
   19.590    0.8775
   19.725    0.7491
   19.860    0.7812
   19.995    0.8561
   20.130    0.7812
   20.265    0.8668
   20.400    0.7170
   20.535    0.7812
   20.670    0.8882
   20.805    0.8347
   20.940    0.8026
   21.075    0.8133
   21.210    0.8133
   21.345    0.7705
   21.480    0.8882
   21.615    0.8668
   21.750    0.8026
   21.885    0.8240
   22.020    0.8454
   22.155    0.6635
   22.290    0.8454
   22.425    0.9203
   22.560    0.7491
   22.695    0.7491
   22.830    0.6421
   22.965    0.7384
   23.100    0.6956
   23.235    0.7170
   23.370    0.8347
   23.505    0.7277
   23.640    0.6742
   23.775    0.6849
   23.910    0.7491
   24.045    0.5671
   24.180    0.7812
   24.315    0.6100
   24.450    0.6849
   24.585    0.6742
   24.720    0.5886
   24.855    0.5671
   24.990    0.7491
   25.125    0.7170
   25.260    0.6956
   25.395    0.7063
   25.530    0.5778
   25.665    0.6314
   25.800    0.6635
   25.935    0.6528
   26.070    0.6956
   26.205    0.5671
   26.340    0.6742
   26.475    0.5350
   26.610    0.5136
   26.745    0.5564
   26.880    0.4922
   27.015    0.5457
   27.150    0.6207
   27.285    0.6100
   27.420    0.5886
   27.555    0.5671
   27.690    0.5778
   27.825    0.4173
   27.960    0.4494
   28.095    0.5564
   28.230    0.4922
   28.365    0.6528
   28.500    0.6100
   28.635    0.4922
   28.770    0.5993
   28.905    0.5671
   29.040    0.5029
   29.175    0.6207
   29.310    0.5136
   29.445    0.5243
   29.580    0.4601
   29.715    0.4387
   29.850    0.5029
   29.985    0.5457
   30.120    0.4922
   30.255    0.5671
   30.390    0.5457
   30.525    0.5457
   30.660    0.4815
   30.795    0.4708
   30.930    0.4708
   31.065    0.4387
   31.200    0.4387
   31.335    0.4494
   31.470    0.5350
   31.605    0.4708
   31.740    0.4494
   31.875    0.3959
   32.010    0.4173
   32.145    0.3959
   32.280    0.5136
   32.415    0.3531
   32.550    0.3317
   32.685    0.4280
   32.820    0.4387
   32.955    0.2782
   33.090    0.4280
   33.225    0.5136
   33.360    0.4280
   33.495    0.3638
   33.630    0.5243
   33.765    0.4280
   33.900    0.4815
   34.035    0.3638
   34.170    0.3424
   34.305    0.3638
   34.440    0.4173
   34.575    0.3531
   34.710    0.4173
   34.845    0.3638
   34.980    0.4173
   35.115    0.2889
   35.250    0.3638
   35.385    0.3852
   35.520    0.3424
   35.655    0.3531
   35.790    0.3745
   35.925    0.2996
   36.060    0.3424
   36.195    0.2782
   36.330    0.3317
   36.465    0.3210
   36.600    0.4173
   36.735    0.3638
   36.870    0.3103
   37.005    0.3210
   37.140    0.3317
   37.275    0.3317
   37.410    0.3210
   37.545    0.3210
   37.680    0.3103
   37.815    0.2996
   37.950    0.2889
   38.085    0.3424
   38.220    0.3210
   38.355    0.2996
   38.490    0.3424
   38.625    0.1819
   38.760    0.2247
   38.895    0.2247
   39.030    0.2354
   39.165    0.2140
   39.300    0.2675
   39.435    0.1819
   39.570    0.2889
   39.705    0.2461
   39.840    0.3317
   39.975    0.2675
   39.990    0.2354