File: data/MOCOF-1/PXRD/PXRD_KE-239_Co-Ka1_film-3mm_5s-deg.xyd
    1.500    2.7608
    1.635    2.7394
    1.770    2.2044
    1.905    2.1830
    2.040    1.9369
    2.175    2.1188
    2.310    1.7335
    2.445    1.6586
    2.580    1.6586
    2.715    1.6372
    2.850    1.5623
    2.985    1.2948
    3.120    1.4981
    3.255    1.4767
    3.390    1.4767
    3.525    1.4125
    3.660    1.3804
    3.795    1.3376
    3.930    1.5409
    4.065    1.4232
    4.200    1.4874
    4.335    1.3483
    4.470    1.5088
    4.605    1.2841
    4.740    1.3804
    4.875    1.4125
    5.010    1.3269
    5.145    1.2627
    5.280    1.1771
    5.415    1.4874
    5.550    1.6907
    5.685    1.3911
    5.820    1.4981
    5.955    1.6372
    6.090    1.5623
    6.225    1.7657
    6.360    1.8941
    6.495    2.0118
    6.630    1.9797
    6.765    1.7657
    6.900    1.5302
    7.035    1.6693
    7.170    1.3269
    7.305    1.2948
    7.440    1.2734
    7.575    1.2627
    7.710    1.2520
    7.845    1.3483
    7.980    1.1878
    8.115    1.2306
    8.250    0.9952
    8.385    1.1557
    8.520    1.1450
    8.655    1.0273
    8.790    1.1022
    8.925    0.9738
    9.060    0.9096
    9.195    0.9738
    9.330    0.8347
    9.465    0.9738
    9.600    0.8775
    9.735    0.7919
    9.870    1.0059
   10.005    0.8026
   10.140    0.9524
   10.275    1.0273
   10.410    0.7812
   10.545    0.7384
   10.680    0.6742
   10.815    0.7705
   10.950    0.8133
   11.085    0.7598
   11.220    0.8347
   11.355    0.8240
   11.490    0.7705
   11.625    0.8561
   11.760    0.7919
   11.895    0.8775
   12.030    0.5993
   12.165    0.7705
   12.300    0.9845
   12.435    0.9203
   12.570    1.0059
   12.705    0.6635
   12.840    0.8347
   12.975    0.9952
   13.110    0.8133
   13.245    0.7063
   13.380    0.8989
   13.515    0.9524
   13.650    0.9631
   13.785    0.7812
   13.920    0.6635
   14.055    0.7705
   14.190    0.7812
   14.325    0.7598
   14.460    0.7705
   14.595    0.7384
   14.730    0.8454
   14.865    0.8454
   15.000    0.8454
   15.135    0.8775
   15.270    0.6314
   15.405    0.8347
   15.540    0.9096
   15.675    0.7598
   15.810    0.7384
   15.945    0.7812
   16.080    0.9096
   16.215    0.7384
   16.350    0.7705
   16.485    0.8347
   16.620    0.7812
   16.755    0.6742
   16.890    0.7919
   17.025    0.8133
   17.160    0.7598
   17.295    0.8561
   17.430    0.8668
   17.565    0.6742
   17.700    0.8454
   17.835    0.8240
   17.970    0.7598
   18.105    0.7812
   18.240    0.7063
   18.375    0.6956
   18.510    0.7384
   18.645    0.7491
   18.780    0.7491
   18.915    0.8026
   19.050    0.8989
   19.185    0.8882
   19.320    0.6635
   19.455    0.8347
   19.590    0.7170
   19.725    0.6528
   19.860    0.6742
   19.995    0.7598
   20.130    0.7919
   20.265    0.8347
   20.400    0.6100
   20.535    0.7384
   20.670    0.8454
   20.805    0.6635
   20.940    0.6742
   21.075    0.7491
   21.210    0.6849
   21.345    0.7384
   21.480    0.6849
   21.615    0.6956
   21.750    0.7063
   21.885    0.7812
   22.020    0.8133
   22.155    0.5886
   22.290    0.6635
   22.425    0.6742
   22.560    0.8989
   22.695    0.6742
   22.830    0.8133
   22.965    0.6314
   23.100    0.5993
   23.235    0.7598
   23.370    0.7277
   23.505    0.6849
   23.640    0.6528
   23.775    0.7277
   23.910    0.6421
   24.045    0.6528
   24.180    0.7063
   24.315    0.6849
   24.450    0.7705
   24.585    0.6314
   24.720    0.6421
   24.855    0.6314
   24.990    0.5564
   25.125    0.5993
   25.260    0.6314
   25.395    0.5564
   25.530    0.5457
   25.665    0.5993
   25.800    0.5778
   25.935    0.5350
   26.070    0.5993
   26.205    0.5136
   26.340    0.5671
   26.475    0.5350
   26.610    0.5029
   26.745    0.5564
   26.880    0.5243
   27.015    0.4815
   27.150    0.4922
   27.285    0.4601
   27.420    0.6528
   27.555    0.6207
   27.690    0.5350
   27.825    0.3531
   27.960    0.5564
   28.095    0.5671
   28.230    0.4494
   28.365    0.4815
   28.500    0.5136
   28.635    0.4387
   28.770    0.4601
   28.905    0.5029
   29.040    0.6528
   29.175    0.5778
   29.310    0.4815
   29.445    0.5886
   29.580    0.7277
   29.715    0.7170
   29.850    0.5029
   29.985    0.5029
   30.120    0.5350
   30.255    0.5136
   30.390    0.4922
   30.525    0.4922
   30.660    0.4066
   30.795    0.4494
   30.930    0.4494
   31.065    0.5243
   31.200    0.4280
   31.335    0.4387
   31.470    0.5136
   31.605    0.5029
   31.740    0.4066
   31.875    0.3103
   32.010    0.4815
   32.145    0.3745
   32.280    0.3852
   32.415    0.4387
   32.550    0.4066
   32.685    0.4922
   32.820    0.3959
   32.955    0.3959
   33.090    0.3959
   33.225    0.3210
   33.360    0.3210
   33.495    0.4815
   33.630    0.3959
   33.765    0.8775
   33.900    0.3852
   34.035    0.3424
   34.170    0.4173
   34.305    0.4708
   34.440    0.2675
   34.575    0.4280
   34.710    0.4280
   34.845    0.3638
   34.980    0.3959
   35.115    0.3103
   35.250    0.3638
   35.385    0.2782
   35.520    0.3745
   35.655    0.2675
   35.790    0.4066
   35.925    0.3531
   36.060    0.3745
   36.195    0.3317
   36.330    0.2140
   36.465    0.3103
   36.600    0.2889
   36.735    0.3210
   36.870    0.2675
   37.005    0.4066
   37.140    0.3210
   37.275    0.2675
   37.410    1.2413
   37.545    0.2461
   37.680    0.2354
   37.815    0.2782
   37.950    0.2247
   38.085    0.2461
   38.220    0.2247
   38.355    0.2568
   38.490    0.2782
   38.625    0.2461
   38.760    0.2568
   38.895    0.2996
   39.030    0.3103
   39.165    0.1926
   39.300    0.2461
   39.435    0.6100
   39.570    0.2568
   39.705    0.3531
   39.840    0.2033
   39.975    0.2140
   39.990    0.2247