File: data/MOCOF-1/PXRD/PXRD_KE-319_Cu-Ka1_capillary-1mm_3s-deg.xyd
    1.500   21.9940
    1.635   18.6238
    1.770   14.8499
    1.905   12.6909
    2.040   11.3217
    2.175    9.5138
    2.310    8.2851
    2.445    8.2675
    2.580    7.6707
    2.715    7.0915
    2.850    7.2845
    2.985    7.6180
    3.120    8.3026
    3.255    9.6191
    3.390   13.0420
    3.525   10.7776
    3.660    7.7409
    3.795    6.5649
    3.930    6.6000
    4.065    6.5473
    4.200    6.4946
    4.335    6.1260
    4.470    5.4415
    4.605    5.0728
    4.740    5.1431
    4.875    4.5989
    5.010    4.2127
    5.145    4.1776
    5.280    4.2654
    5.415    4.0021
    5.550    4.4585
    5.685    4.3181
    5.820    4.2127
    5.955    4.1776
    6.090    3.7739
    6.225    4.2830
    6.360    4.1074
    6.495    4.4058
    6.630    4.1425
    6.765    4.4058
    6.900    4.8095
    7.035    4.8798
    7.170    4.5638
    7.305    4.1601
    7.440    4.3005
    7.575    4.6165
    7.710    4.6340
    7.845    4.4936
    7.980    4.5989
    8.115    4.3707
    8.250    4.0548
    8.385    4.6165
    8.520    4.0197
    8.655    4.7393
    8.790    4.3181
    8.925    4.8095
    9.060    4.8095
    9.195    4.5287
    9.330    4.7744
    9.465    4.5638
    9.600    4.8973
    9.735    4.7393
    9.870    4.5638
   10.005    4.8095
   10.140    4.4760
   10.275    4.0021
   10.410    4.4234
   10.545    4.2303
   10.680    4.2303
   10.815    4.7569
   10.950    4.4234
   11.085    4.7393
   11.220    4.3707
   11.355    4.1425
   11.490    4.2127
   11.625    4.1250
   11.760    4.1776
   11.895    4.4058
   12.030    4.4058
   12.165    3.8090
   12.300    4.0723
   12.435    4.3005
   12.570    4.2654
   12.705    4.0372
   12.840    4.4234
   12.975    4.3883
   13.110    3.7388
   13.245    4.1074
   13.380    4.1074
   13.515    4.1250
   13.650    3.9319
   13.785    3.8266
   13.920    4.2478
   14.055    3.8090
   14.190    3.8617
   14.325    3.7739
   14.460    3.6862
   14.595    3.5984
   14.730    3.8792
   14.865    3.8617
   15.000    3.6335
   15.135    4.1425
   15.270    3.9846
   15.405    3.7037
   15.540    3.9670
   15.675    3.3526
   15.810    4.2303
   15.945    4.2654
   16.080    3.9143
   16.215    4.0548
   16.350    4.0197
   16.485    3.8968
   16.620    3.7564
   16.755    3.8617
   16.890    4.1074
   17.025    3.6159
   17.160    3.5282
   17.295    3.7739
   17.430    4.4760
   17.565    3.9319
   17.700    3.7739
   17.835    3.6686
   17.970    3.3702
   18.105    4.0372
   18.240    4.0899
   18.375    3.8617
   18.510    3.8441
   18.645    3.8090
   18.780    3.7388
   18.915    4.0723
   19.050    4.2654
   19.185    3.7564
   19.320    3.8441
   19.455    3.9846
   19.590    4.1425
   19.725    4.3181
   19.860    3.7564
   19.995    4.0021
   20.130    3.6510
   20.265    3.9319
   20.400    3.6335
   20.535    3.7915
   20.670    4.1250
   20.805    4.2830
   20.940    4.1425
   21.075    4.2654
   21.210    4.3883
   21.345    4.4409
   21.480    4.4409
   21.615    3.8968
   21.750    3.9319
   21.885    4.3532
   22.020    4.0548
   22.155    4.1952
   22.290    3.9846
   22.425    3.9143
   22.560    4.3883
   22.695    4.1074
   22.830    4.2478
   22.965    4.1250
   23.100    3.8441
   23.235    3.9670
   23.370    4.1952
   23.505    4.0372
   23.640    4.3707
   23.775    4.3707
   23.910    3.6510
   24.045    4.2127
   24.180    3.9319
   24.315    4.1952
   24.450    4.0548
   24.585    4.1250
   24.720    3.7564
   24.855    4.7218
   24.990    4.3005
   25.125    4.0723
   25.260    4.1952
   25.395    3.6686
   25.530    4.3707
   25.665    3.9143
   25.800    3.8617
   25.935    4.1250
   26.070    3.9670
   26.205    3.7739
   26.340    4.0548
   26.475    3.5984
   26.610    4.0021
   26.745    3.6335
   26.880    3.7739
   27.015    4.2127
   27.150    3.9846
   27.285    3.8968
   27.420    3.7739
   27.555    3.6159
   27.690    3.7213
   27.825    3.5106
   27.960    3.6862
   28.095    3.8792
   28.230    3.5282
   28.365    3.9319
   28.500    3.2824
   28.635    3.5633
   28.770    3.6335
   28.905    3.5808
   29.040    3.4931
   29.175    3.1245
   29.310    3.5633
   29.445    3.9143
   29.580    3.4931
   29.715    3.4755
   29.850    3.4404
   29.985    3.5457
   30.120    3.3526
   30.255    3.1420
   30.390    3.2824
   30.525    3.2122
   30.660    3.6335
   30.795    3.3000
   30.930    3.0542
   31.065    3.1947
   31.200    3.1245
   31.335    3.4404
   31.470    3.2473
   31.605    2.4399
   31.740    3.5633
   31.875    3.0893
   32.010    3.0718
   32.145    2.9314
   32.280    2.8787
   32.415    3.1771
   32.550    2.7909
   32.685    2.8260
   32.820    3.1420
   32.955    3.2298
   33.090    3.0367
   33.225    2.6681
   33.360    2.9138
   33.495    3.0893
   33.630    3.1245
   33.765    3.4580
   33.900    3.0893
   34.035    3.0016
   34.170    3.0367
   34.305    2.9489
   34.440    2.9665
   34.575    2.9665
   34.710    3.1420
   34.845    2.4399
   34.980    2.5979
   35.115    2.8787
   35.250    2.6505
   35.385    2.7558
   35.520    2.8612
   35.655    2.8787
   35.790    2.8085
   35.925    2.9840
   36.060    2.7558
   36.195    3.1420
   36.330    2.9840
   36.465    2.5628
   36.600    2.6681
   36.735    2.7207
   36.870    2.9840
   37.005    2.5101
   37.140    2.4574
   37.275    2.7734
   37.410    2.6505
   37.545    2.7383
   37.680    2.5276
   37.815    2.5452
   37.950    2.7383
   38.085    2.7383
   38.220    2.7207
   38.355    2.5452
   38.490    2.7734
   38.625    2.3697
   38.760    2.6505
   38.895    2.8963
   39.030    2.4574
   39.165    2.5803
   39.300    2.6505
   39.435    2.8260
   39.570    2.8787
   39.705    2.6330
   39.840    2.5979
   39.975    2.7558
   39.990    2.6681