File: data/MOCOF-1/PXRD/PXRD_KE-153_Cu-Ka1_capillary-1mm_5s-deg.xyd
    1.500   28.9415
    1.635   26.8773
    1.770   24.7288
    1.905   23.5808
    2.040   22.6014
    2.175   21.5377
    2.310   21.1901
    2.445   21.4429
    2.580   22.2117
    2.715   24.2549
    2.850   26.4560
    2.985   30.6582
    3.120   38.1675
    3.255   50.3739
    3.390   72.1748
    3.525   68.1517
    3.660   33.8705
    3.795   33.4071
    3.930   38.6835
    4.065   38.4097
    4.200   31.2164
    4.335   20.9900
    4.470   15.3344
    4.605   12.7436
    4.740   11.6377
    4.875   10.1948
    5.010   10.6793
    5.145    9.8368
    5.280    9.5524
    5.415    9.7841
    5.550    9.1943
    5.685    9.1522
    5.820    9.6051
    5.955    9.2154
    6.090    9.8052
    6.225    9.6051
    6.360    9.9526
    6.495   10.0685
    6.630   10.4687
    6.765   11.7325
    6.900   14.6288
    7.035   13.8599
    7.170   11.1848
    7.305   10.4055
    7.440    9.6472
    7.575   10.2054
    7.710   11.0058
    7.845   11.3533
    7.980   10.8373
    8.115   11.2902
    8.250   11.9431
    8.385   11.4587
    8.520   11.1322
    8.655   10.6266
    8.790   10.0369
    8.925    9.8578
    9.060    9.6998
    9.195    9.9631
    9.330    9.4050
    9.465    9.6998
    9.600    9.8368
    9.735    9.3418
    9.870    9.4576
   10.005    9.5524
   10.140    9.5419
   10.275    9.2048
   10.410    9.8578
   10.545    9.5524
   10.680    9.8262
   10.815    9.2996
   10.950    8.9415
   11.085    9.3628
   11.220    9.3523
   11.355    9.1627
   11.490    9.2786
   11.625    9.0785
   11.760    8.8994
   11.895    9.2786
   12.030    8.6467
   12.165    8.9205
   12.300    8.8994
   12.435    8.9310
   12.570    9.2575
   12.705    8.6045
   12.840    8.8152
   12.975    8.8784
   13.110    8.4676
   13.245    8.9310
   13.380    9.0469
   13.515    8.6467
   13.650    8.4571
   13.785    9.1838
   13.920    9.0469
   14.055    8.7098
   14.190    8.8152
   14.325    8.5097
   14.460    8.8362
   14.595    8.6256
   14.730    8.8362
   14.865    8.4255
   15.000    8.9310
   15.135    8.5624
   15.270    8.5835
   15.405    8.5940
   15.540    8.7098
   15.675    9.1522
   15.810    8.7309
   15.945    8.6888
   16.080    8.4887
   16.215    8.4676
   16.350    9.0574
   16.485    8.4571
   16.620    8.5097
   16.755    8.8362
   16.890    8.5940
   17.025    8.8046
   17.160    8.8573
   17.295    8.4571
   17.430    9.1943
   17.565    8.5729
   17.700    8.6888
   17.835    8.6467
   17.970    8.4150
   18.105    8.6888
   18.240    8.8889
   18.375    8.6361
   18.510    9.0785
   18.645    8.5624
   18.780    8.7625
   18.915    9.0890
   19.050    8.9731
   19.185    8.7204
   19.320    8.5729
   19.455    9.2680
   19.590    9.0153
   19.725    8.6572
   19.860    9.3734
   19.995    8.9837
   20.130    9.4471
   20.265    9.2259
   20.400    9.0574
   20.535    8.9942
   20.670    9.3944
   20.805    9.3312
   20.940    8.9415
   21.075    9.7314
   21.210    9.2891
   21.345    9.6367
   21.480    9.2891
   21.615    9.4260
   21.750    9.3312
   21.885    8.9205
   22.020    8.9415
   22.155    9.1943
   22.290    9.2048
   22.425    9.0574
   22.560    9.3839
   22.695    9.0574
   22.830    9.2786
   22.965    9.5103
   23.100    8.9626
   23.235    9.0574
   23.370    8.9837
   23.505    9.0469
   23.640    9.1627
   23.775    8.7941
   23.910    9.3734
   24.045    9.0258
   24.180    8.8678
   24.315    9.0679
   24.450    8.9731
   24.585    8.8257
   24.720    8.8784
   24.855    8.8046
   24.990    9.3207
   25.125    8.6361
   25.260    8.3623
   25.395    8.9310
   25.530    8.2359
   25.665    8.8573
   25.800    8.8468
   25.935    8.6467
   26.070    8.6151
   26.205    8.3096
   26.340    8.1938
   26.475    8.5940
   26.610    8.4676
   26.745    8.3096
   26.880    8.3412
   27.015    8.0147
   27.150    8.6256
   27.285    7.9937
   27.420    8.5729
   27.555    8.3939
   27.690    8.2886
   27.825    8.3518
   27.960    8.3518
   28.095    8.9205
   28.230    8.9205
   28.365    8.6256
   28.500    7.8884
   28.635    8.2359
   28.770    8.4255
   28.905    7.9621
   29.040    7.8989
   29.175    7.9937
   29.310    8.5835
   29.445    8.3202
   29.580    8.2359
   29.715    7.9094
   29.850    8.1306
   29.985    8.1517
   30.120    8.1938
   30.255    8.1727
   30.390    8.3307
   30.525    7.8041
   30.660    7.9726
   30.795    7.9094
   30.930    8.3728
   31.065    7.7830
   31.200    8.1306
   31.335    7.8146
   31.470    8.6361
   31.605    8.1727
   31.740    8.2991
   31.875    8.1727
   32.010    8.1201
   32.145    7.7304
   32.280    7.8462
   32.415    8.2570
   32.550    7.6777
   32.685    7.9726
   32.820    8.0463
   32.955    7.6461
   33.090    7.9831
   33.225    7.6777
   33.360    7.1511
   33.495    7.9200
   33.630    7.2986
   33.765    7.5092
   33.900    7.9621
   34.035    7.9410
   34.170    8.0042
   34.305    7.5619
   34.440    7.8041
   34.575    7.7409
   34.710    7.6777
   34.845    7.7725
   34.980    8.0147
   35.115    7.2249
   35.250    7.2459
   35.385    7.6988
   35.520    7.4987
   35.655    7.6461
   35.790    7.6988
   35.925    7.4355
   36.060    7.9305
   36.195    7.6988
   36.330    7.6672
   36.465    7.6672
   36.600    7.5619
   36.735    7.6883
   36.870    7.4460
   37.005    7.5724
   37.140    7.2565
   37.275    7.3828
   37.410    7.6251
   37.545    7.5408
   37.680    7.6567
   37.815    7.8357
   37.950    7.1406
   38.085    7.7304
   38.220    7.7199
   38.355    7.7199
   38.490    7.7725
   38.625    7.8041
   38.760    7.3407
   38.895    7.3302
   39.030    7.4566
   39.165    7.3828
   39.300    7.5619
   39.435    7.4250
   39.570    7.8989
   39.705    7.6356
   39.840    7.4460
   39.975    7.0985
   39.990    6.9300