File: data/MOCOF-1/PXRD/PXRD_KE-161_Cu-Ka1_capillary-1mm_5s-deg.xyd
    1.500   22.4434
    1.635   21.9695
    1.770   19.8842
    1.905   17.7988
    2.040   18.0832
    2.175   16.9458
    2.310   17.3670
    2.445   17.5671
    2.580   19.4734
    2.715   21.2954
    2.850   24.6656
    2.985   30.0369
    3.120   37.1985
    3.255   51.9958
    3.390   79.8631
    3.525   72.4592
    3.660   36.7562
    3.795   39.9263
    3.930   43.8547
    4.065   36.3349
    4.200   24.8236
    4.335   16.5877
    4.470   11.4903
    4.605    9.3523
    4.740    9.1311
    4.875    8.4255
    5.010    7.9937
    5.145    7.9621
    5.280    7.7936
    5.415    8.7414
    5.550    7.9726
    5.685    7.1090
    5.820    7.0774
    5.955    7.2038
    6.090    7.3618
    6.225    7.4144
    6.360    7.4250
    6.495    8.1095
    6.630    8.1833
    6.765   10.0158
    6.900   13.2175
    7.035   12.3433
    7.170    7.9305
    7.305    8.0042
    7.440    7.4776
    7.575    8.3939
    7.710    8.5729
    7.845    9.0890
    7.980    9.5945
    8.115    9.2786
    8.250    8.9731
    8.385    8.4992
    8.520    7.8884
    8.655    7.6040
    8.790    7.3407
    8.925    7.6356
    9.060    6.5824
    9.195    6.6456
    9.330    6.4139
    9.465    7.0879
    9.600    6.9616
    9.735    6.7825
    9.870    7.0879
   10.005    6.6561
   10.140    6.4244
   10.275    6.7615
   10.410    6.9300
   10.545    7.0774
   10.680    6.8457
   10.815    6.4666
   10.950    6.5719
   11.085    6.4034
   11.220    6.4455
   11.355    6.2454
   11.490    6.5403
   11.625    6.6561
   11.760    6.4771
   11.895    6.9510
   12.030    7.1933
   12.165    6.8878
   12.300    6.4982
   12.435    6.7404
   12.570    6.7193
   12.705    6.7930
   12.840    6.7299
   12.975    6.7720
   13.110    6.5298
   13.245    6.3191
   13.380    6.9089
   13.515    6.8773
   13.650    6.8773
   13.785    6.6983
   13.920    6.5613
   14.055    6.4034
   14.190    6.2033
   14.325    6.2875
   14.460    6.1822
   14.595    6.0242
   14.730    5.8662
   14.865    6.2033
   15.000    6.3507
   15.135    6.4876
   15.270    6.0769
   15.405    6.3191
   15.540    6.6035
   15.675    6.5298
   15.810    6.5192
   15.945    7.0037
   16.080    7.1617
   16.215    6.7299
   16.350    7.0142
   16.485    6.6877
   16.620    6.6035
   16.755    6.1611
   16.890    6.5087
   17.025    6.5403
   17.160    6.7720
   17.295    6.6245
   17.430    6.3612
   17.565    6.5508
   17.700    6.0769
   17.835    6.3402
   17.970    6.1190
   18.105    6.3191
   18.240    6.3823
   18.375    6.8984
   18.510    6.5298
   18.645    6.4560
   18.780    6.6035
   18.915    6.5929
   19.050    6.8036
   19.185    6.9616
   19.320    6.3296
   19.455    6.4876
   19.590    6.4139
   19.725    6.4034
   19.860    7.0142
   19.995    6.6667
   20.130    6.5929
   20.265    6.4771
   20.400    7.0563
   20.535    6.4244
   20.670    6.4139
   20.805    6.7088
   20.940    6.8668
   21.075    6.6667
   21.210    7.0774
   21.345    6.6983
   21.480    6.5613
   21.615    6.6983
   21.750    7.1406
   21.885    6.9300
   22.020    6.7088
   22.155    7.1511
   22.290    6.8668
   22.425    6.7615
   22.560    6.8668
   22.695    6.4982
   22.830    6.6983
   22.965    7.0037
   23.100    6.6667
   23.235    6.9826
   23.370    6.4455
   23.505    6.8984
   23.640    6.8984
   23.775    6.6983
   23.910    6.6351
   24.045    6.1822
   24.180    6.5298
   24.315    6.4560
   24.450    6.3191
   24.585    6.4560
   24.720    6.9300
   24.855    6.5719
   24.990    6.4876
   25.125    6.5824
   25.260    6.1190
   25.395    6.2981
   25.530    6.2559
   25.665    6.1611
   25.800    6.6561
   25.935    6.2454
   26.070    5.9084
   26.205    6.5719
   26.340    6.2559
   26.475    6.4876
   26.610    5.6977
   26.745    5.9084
   26.880    6.2981
   27.015    6.2770
   27.150    6.1927
   27.285    5.9610
   27.420    6.1611
   27.555    6.1927
   27.690    6.4350
   27.825    5.9189
   27.960    6.5087
   28.095    5.9716
   28.230    6.1190
   28.365    6.4982
   28.500    6.1085
   28.635    6.2349
   28.770    5.8873
   28.905    6.3296
   29.040    5.7925
   29.175    5.8136
   29.310    5.9084
   29.445    5.7820
   29.580    5.9400
   29.715    5.8241
   29.850    5.6977
   29.985    5.5819
   30.120    5.9505
   30.255    5.8662
   30.390    6.0137
   30.525    5.6767
   30.660    6.0242
   30.795    5.7820
   30.930    6.0453
   31.065    5.6767
   31.200    5.8136
   31.335    5.6767
   31.470    5.4134
   31.605    5.6556
   31.740    5.6451
   31.875    6.4876
   32.010    6.0137
   32.145    6.1822
   32.280    5.6872
   32.415    5.3397
   32.550    5.5503
   32.685    5.3502
   32.820    5.5292
   32.955    5.5924
   33.090    5.4239
   33.225    5.2554
   33.360    5.2765
   33.495    5.1290
   33.630    5.2238
   33.765    5.5082
   33.900    5.2659
   34.035    5.3923
   34.170    5.3712
   34.305    5.4660
   34.440    5.4660
   34.575    5.0553
   34.710    5.2133
   34.845    5.6661
   34.980    5.0448
   35.115    4.9921
   35.250    4.6235
   35.385    5.3291
   35.520    5.0869
   35.655    5.2238
   35.790    5.0237
   35.925    5.1606
   36.060    4.9500
   36.195    5.1711
   36.330    5.1922
   36.465    4.8131
   36.600    4.7920
   36.735    4.9605
   36.870    5.3607
   37.005    4.9816
   37.140    5.1817
   37.275    4.9394
   37.410    5.2554
   37.545    4.8552
   37.680    4.6551
   37.815    5.0342
   37.950    4.9816
   38.085    4.6445
   38.220    4.7288
   38.355    5.0342
   38.490    5.0132
   38.625    5.2027
   38.760    4.7183
   38.895    5.4555
   39.030    5.5082
   39.165    5.5082
   39.300    5.2449
   39.435    5.0342
   39.570    5.0342
   39.705    5.1290
   39.840    5.2975
   39.975    4.9184
   39.990    4.9921