File: data/MOCOF-1/PXRD/PXRD_KE-036_Cu-Ka1_capillary-1mm_5s-deg.xyd
    1.500   16.3033
    1.635   15.4081
    1.770   13.9863
    1.905   13.0806
    2.040   11.7009
    2.175   11.5113
    2.310   10.3844
    2.445   10.1632
    2.580    9.9105
    2.715    9.6998
    2.850    9.2154
    2.985    8.9100
    3.120    8.8468
    3.255    8.9415
    3.390    8.2886
    3.525    8.3939
    3.660    8.2570
    3.795    8.1938
    3.930    7.8989
    4.065    7.8568
    4.200    7.5724
    4.335    7.9621
    4.470    7.5408
    4.605    7.5303
    4.740    7.0458
    4.875    7.0142
    5.010    6.7825
    5.145    7.3723
    5.280    6.7193
    5.415    7.0248
    5.550    7.1195
    5.685    7.0142
    5.820    6.6456
    5.955    7.1301
    6.090    7.1301
    6.225    6.8352
    6.360    6.6772
    6.495    6.9089
    6.630    6.9089
    6.765    7.2354
    6.900    6.9932
    7.035    7.0563
    7.170    7.1301
    7.305    7.3618
    7.440    7.3512
    7.575    7.1722
    7.710    7.2249
    7.845    7.5829
    7.980    7.1195
    8.115    7.7304
    8.250    7.3934
    8.385    7.4355
    8.520    7.6777
    8.655    7.5092
    8.790    7.8252
    8.925    7.6672
    9.060    7.0774
    9.195    7.9200
    9.330    7.3196
    9.465    7.5197
    9.600    7.6040
    9.735    7.9410
    9.870    7.3934
   10.005    7.6988
   10.140    7.3618
   10.275    7.4882
   10.410    7.2249
   10.545    7.6988
   10.680    7.5303
   10.815    7.2459
   10.950    7.4776
   11.085    6.5613
   11.220    7.0142
   11.355    7.0879
   11.490    7.0142
   11.625    6.8668
   11.760    7.2670
   11.895    7.2986
   12.030    6.9194
   12.165    6.8878
   12.300    6.7299
   12.435    6.6667
   12.570    6.8773
   12.705    6.6351
   12.840    6.6245
   12.975    6.4455
   13.110    6.4876
   13.245    6.3191
   13.380    6.9721
   13.515    6.6456
   13.650    6.3086
   13.785    6.2665
   13.920    6.5192
   14.055    6.5403
   14.190    6.4771
   14.325    6.2454
   14.460    6.4455
   14.595    6.4876
   14.730    6.6667
   14.865    6.1401
   15.000    6.8141
   15.135    6.7404
   15.270    6.3086
   15.405    6.6772
   15.540    6.3507
   15.675    6.5719
   15.810    6.7720
   15.945    6.2454
   16.080    6.0979
   16.215    6.4560
   16.350    6.6456
   16.485    6.2349
   16.620    6.6983
   16.755    6.4666
   16.890    6.5824
   17.025    6.3296
   17.160    6.1717
   17.295    6.5087
   17.430    6.4982
   17.565    6.5403
   17.700    6.8352
   17.835    6.3402
   17.970    6.3191
   18.105    6.8352
   18.240    6.5403
   18.375    6.2981
   18.510    6.5298
   18.645    7.1090
   18.780    6.2981
   18.915    6.7193
   19.050    6.7615
   19.185    6.6772
   19.320    6.7299
   19.455    6.9405
   19.590    6.4244
   19.725    6.7825
   19.860    6.8036
   19.995    7.0142
   20.130    6.6245
   20.265    6.7404
   20.400    6.5613
   20.535    6.7930
   20.670    6.9405
   20.805    6.9826
   20.940    6.7299
   21.075    6.7720
   21.210    6.5719
   21.345    7.1090
   21.480    6.5403
   21.615    6.8878
   21.750    6.9089
   21.885    6.9932
   22.020    7.1511
   22.155    6.8141
   22.290    6.6140
   22.425    6.6456
   22.560    6.5508
   22.695    6.8036
   22.830    6.9089
   22.965    6.9616
   23.100    6.6351
   23.235    6.8036
   23.370    6.8457
   23.505    6.8036
   23.640    6.5298
   23.775    7.1511
   23.910    6.3928
   24.045    6.5824
   24.180    6.2559
   24.315    6.6772
   24.450    6.1822
   24.585    6.1611
   24.720    6.2875
   24.855    6.0769
   24.990    6.9826
   25.125    6.2559
   25.260    5.8768
   25.395    6.0032
   25.530    6.3402
   25.665    6.3612
   25.800    6.3086
   25.935    6.3296
   26.070    6.0558
   26.205    6.1401
   26.340    5.8241
   26.475    6.3296
   26.610    6.1401
   26.745    5.9189
   26.880    5.7715
   27.015    5.8662
   27.150    6.1190
   27.285    6.1085
   27.420    6.2349
   27.555    5.9926
   27.690    5.6345
   27.825    5.9821
   27.960    6.1717
   28.095    5.6345
   28.230    5.6451
   28.365    6.0453
   28.500    5.7083
   28.635    5.7083
   28.770    5.5292
   28.905    5.3291
   29.040    5.4450
   29.175    5.8241
   29.310    5.7925
   29.445    5.3291
   29.580    5.4344
   29.715    5.0237
   29.850    5.1290
   29.985    5.2238
   30.120    5.2659
   30.255    5.7504
   30.390    5.3397
   30.525    5.2975
   30.660    5.3502
   30.795    5.6029
   30.930    4.8552
   31.065    4.8973
   31.200    5.5082
   31.335    5.3607
   31.470    5.0342
   31.605    5.2659
   31.740    5.5187
   31.875    4.7604
   32.010    4.6235
   32.145    5.1817
   32.280    4.8552
   32.415    4.7077
   32.550    4.9078
   32.685    5.3818
   32.820    5.2554
   32.955    4.8763
   33.090    4.8763
   33.225    4.7183
   33.360    5.1185
   33.495    4.9078
   33.630    4.7709
   33.765    4.4655
   33.900    4.8025
   34.035    5.0237
   34.170    4.8973
   34.305    4.6445
   34.440    4.6024
   34.575    4.5708
   34.710    4.5392
   34.845    4.5287
   34.980    4.6972
   35.115    4.6656
   35.250    4.6867
   35.385    4.5814
   35.520    4.4234
   35.655    4.4339
   35.790    4.4128
   35.925    4.2759
   36.060    4.4128
   36.195    4.6867
   36.330    4.7815
   36.465    4.3391
   36.600    4.3391
   36.735    4.5814
   36.870    4.6235
   37.005    4.5814
   37.140    4.4444
   37.275    4.1706
   37.410    4.1285
   37.545    4.3181
   37.680    4.4444
   37.815    3.9389
   37.950    4.4128
   38.085    4.1180
   38.220    4.0969
   38.355    4.4234
   38.490    4.4444
   38.625    4.6235
   38.760    4.2338
   38.895    4.5814
   39.030    4.2759
   39.165    4.2654
   39.300    3.9705
   39.435    4.3813
   39.570    4.2654
   39.705    4.0758
   39.840    4.3181
   39.975    4.2865
   39.990    4.1285