File: data/MOCOF-1/PXRD/PXRD_KE-106_Cu-Ka1_capillary-1mm_5s-deg.xyd
    1.500   13.3965
    1.635   12.1222
    1.770   11.8905
    1.905   10.8583
    2.040   11.1532
    2.175   11.2902
    2.310   11.7009
    2.445   12.7330
    2.580   13.2070
    2.715   14.8605
    2.850   17.9779
    2.985   21.9589
    3.120   26.7299
    3.255   37.8304
    3.390   57.5671
    3.525   54.3339
    3.660   26.3086
    3.795   26.3296
    3.930   29.9947
    4.065   27.4039
    4.200   18.5887
    4.335   12.2696
    4.470    8.3307
    4.605    7.2038
    4.740    6.3718
    4.875    5.6767
    5.010    5.6767
    5.145    5.7083
    5.280    5.1711
    5.415    5.1606
    5.550    4.9921
    5.685    5.4239
    5.820    5.0026
    5.955    5.0658
    6.090    4.8763
    6.225    4.8973
    6.360    5.4555
    6.495    5.6661
    6.630    6.0137
    6.765    6.8036
    6.900    9.0469
    7.035    9.2575
    7.170    6.1611
    7.305    5.6661
    7.440    5.6135
    7.575    5.4450
    7.710    6.0979
    7.845    6.3928
    7.980    6.1927
    8.115    6.3823
    8.250    6.6877
    8.385    6.2559
    8.520    5.5608
    8.655    5.4555
    8.790    4.8763
    8.925    4.9605
    9.060    4.7604
    9.195    5.0026
    9.330    4.8341
    9.465    4.6867
    9.600    4.8447
    9.735    5.0237
    9.870    4.6340
   10.005    4.3497
   10.140    4.5287
   10.275    4.6130
   10.410    4.8657
   10.545    4.9816
   10.680    4.4444
   10.815    4.3813
   10.950    4.4550
   11.085    4.7183
   11.220    4.6445
   11.355    4.8236
   11.490    4.5919
   11.625    4.6972
   11.760    4.7709
   11.895    4.7288
   12.030    4.6340
   12.165    4.6551
   12.300    4.8025
   12.435    4.8025
   12.570    4.6024
   12.705    4.7393
   12.840    4.4866
   12.975    4.3497
   13.110    4.6867
   13.245    4.3707
   13.380    4.7183
   13.515    4.6340
   13.650    4.7499
   13.785    4.5392
   13.920    4.3181
   14.055    4.4971
   14.190    4.6024
   14.325    4.5498
   14.460    4.3181
   14.595    4.2759
   14.730    4.4550
   14.865    4.5603
   15.000    4.5708
   15.135    4.1811
   15.270    4.3181
   15.405    4.6130
   15.540    4.4128
   15.675    4.6972
   15.810    4.5392
   15.945    4.3707
   16.080    4.3918
   16.215    4.2865
   16.350    4.3602
   16.485    4.2549
   16.620    4.5498
   16.755    4.7499
   16.890    4.5708
   17.025    4.4866
   17.160    4.4866
   17.295    4.1706
   17.430    4.3602
   17.565    4.3075
   17.700    4.7709
   17.835    4.3075
   17.970    4.3497
   18.105    4.6024
   18.240    4.4760
   18.375    4.6972
   18.510    4.7499
   18.645    4.7604
   18.780    4.5287
   18.915    4.6340
   19.050    4.7183
   19.185    4.6130
   19.320    4.6024
   19.455    5.0237
   19.590    5.0237
   19.725    4.6235
   19.860    4.8868
   19.995    4.7288
   20.130    4.5919
   20.265    4.8025
   20.400    4.8341
   20.535    4.8025
   20.670    4.9605
   20.805    4.5498
   20.940    4.6972
   21.075    4.9921
   21.210    4.6656
   21.345    4.7709
   21.480    5.1080
   21.615    4.8236
   21.750    4.9078
   21.885    4.7499
   22.020    4.7077
   22.155    4.8763
   22.290    4.9184
   22.425    4.7499
   22.560    5.0342
   22.695    4.8025
   22.830    5.2343
   22.965    4.7815
   23.100    5.0869
   23.235    4.6235
   23.370    4.6235
   23.505    4.7183
   23.640    4.8763
   23.775    4.6551
   23.910    4.6445
   24.045    4.5498
   24.180    4.9605
   24.315    4.9289
   24.450    4.5814
   24.585    5.0132
   24.720    4.9500
   24.855    4.3391
   24.990    4.6761
   25.125    4.6024
   25.260    4.0021
   25.395    4.6656
   25.530    4.3602
   25.665    4.2338
   25.800    4.2127
   25.935    4.5498
   26.070    4.4866
   26.205    4.4023
   26.340    4.3075
   26.475    4.4234
   26.610    4.6867
   26.745    4.2233
   26.880    4.3075
   27.015    4.2022
   27.150    4.0864
   27.285    4.0126
   27.420    4.0126
   27.555    4.1496
   27.690    4.4128
   27.825    4.3391
   27.960    4.3602
   28.095    4.3497
   28.230    3.9705
   28.365    4.3181
   28.500    4.2443
   28.635    3.8757
   28.770    4.1390
   28.905    4.2865
   29.040    4.0442
   29.175    4.0758
   29.310    3.7072
   29.445    4.0021
   29.580    3.9600
   29.715    3.8547
   29.850    4.1180
   29.985    4.2127
   30.120    4.0337
   30.255    3.9389
   30.390    4.0337
   30.525    3.5703
   30.660    3.8968
   30.795    3.6335
   30.930    3.9073
   31.065    3.7493
   31.200    3.6335
   31.335    3.8020
   31.470    3.7177
   31.605    3.9705
   31.740    3.8968
   31.875    3.8547
   32.010    3.8125
   32.145    4.0442
   32.280    3.7177
   32.415    3.6230
   32.550    3.7704
   32.685    3.6546
   32.820    3.6546
   32.955    3.6124
   33.090    3.4966
   33.225    3.4650
   33.360    3.4334
   33.495    3.6019
   33.630    3.6019
   33.765    3.4966
   33.900    3.3913
   34.035    3.1701
   34.170    3.3913
   34.305    3.2438
   34.440    3.1490
   34.575    3.4755
   34.710    3.6124
   34.845    3.1596
   34.980    3.1490
   35.115    3.2122
   35.250    2.9595
   35.385    3.1174
   35.520    3.1385
   35.655    3.1806
   35.790    3.1174
   35.925    3.1280
   36.060    3.1069
   36.195    3.0542
   36.330    3.0332
   36.465    3.4334
   36.600    2.9700
   36.735    3.1280
   36.870    2.7699
   37.005    3.1069
   37.140    2.8857
   37.275    3.3913
   37.410    2.9384
   37.545    2.7383
   37.680    3.4229
   37.815    2.7172
   37.950    2.9384
   38.085    3.2754
   38.220    3.0016
   38.355    3.0016
   38.490    2.7804
   38.625    3.3281
   38.760    2.9489
   38.895    2.9068
   39.030    2.6014
   39.165    3.0226
   39.300    2.9595
   39.435    3.0121
   39.570    2.7804
   39.705    3.0542
   39.840    2.9068
   39.975    2.8963
   39.990    2.9279