File: data/MOCOF-1/PXRD/PXRD_KE-167_Cu-Ka1_capillary-1mm_5s-deg.xyd
    1.500   50.1211
    1.635   41.3481
    1.770   33.8178
    1.905   29.6156
    2.040   25.0132
    2.175   22.1274
    2.310   19.0100
    2.445   16.7878
    2.580   15.3344
    2.715   14.4918
    2.850   12.4381
    2.985   12.2170
    3.120   11.6588
    3.255   10.4897
    3.390   10.6056
    3.525    9.8789
    3.660    9.8894
    3.795    8.9837
    3.930    9.4471
    4.065    8.8784
    4.200    8.3939
    4.335    8.2675
    4.470    7.8252
    4.605    7.6672
    4.740    8.2780
    4.875    7.8462
    5.010    7.9410
    5.145    7.4355
    5.280    7.6672
    5.415    7.4671
    5.550    7.4776
    5.685    7.1511
    5.820    7.4250
    5.955    7.6672
    6.090    7.6040
    6.225    7.4566
    6.360    6.8773
    6.495    7.4566
    6.630    6.6983
    6.765    7.1511
    6.900    7.1933
    7.035    6.9616
    7.170    7.2986
    7.305    7.0985
    7.440    6.8878
    7.575    6.4560
    7.710    6.8878
    7.845    7.2354
    7.980    6.8773
    8.115    7.1617
    8.250    6.8457
    8.385    7.1301
    8.520    7.3091
    8.655    7.1301
    8.790    7.3091
    8.925    7.1827
    9.060    6.7299
    9.195    6.8246
    9.330    7.0142
    9.465    6.7825
    9.600    6.4876
    9.735    6.9721
    9.870    7.3091
   10.005    7.1406
   10.140    7.0985
   10.275    6.5929
   10.410    6.8773
   10.545    6.8246
   10.680    7.0563
   10.815    6.9300
   10.950    6.8878
   11.085    7.2143
   11.220    7.0774
   11.355    6.8246
   11.490    6.7193
   11.625    6.8141
   11.760    6.8246
   11.895    6.8878
   12.030    6.6983
   12.165    6.9826
   12.300    6.6140
   12.435    6.3191
   12.570    6.7088
   12.705    6.4455
   12.840    6.6140
   12.975    6.3823
   13.110    6.5929
   13.245    6.6245
   13.380    6.4876
   13.515    6.7825
   13.650    6.7930
   13.785    6.8773
   13.920    6.6772
   14.055    6.3718
   14.190    6.8141
   14.325    6.6140
   14.460    6.6035
   14.595    6.4771
   14.730    7.0563
   14.865    6.5719
   15.000    6.2770
   15.135    6.1401
   15.270    6.7088
   15.405    6.5403
   15.540    6.7509
   15.675    6.1717
   15.810    6.5087
   15.945    6.5929
   16.080    6.6245
   16.215    6.7615
   16.350    6.4350
   16.485    6.8036
   16.620    6.7299
   16.755    6.4666
   16.890    6.4982
   17.025    6.4455
   17.160    6.3191
   17.295    6.4771
   17.430    6.1927
   17.565    6.6140
   17.700    6.5824
   17.835    6.7404
   17.970    6.5719
   18.105    6.2243
   18.240    6.3507
   18.375    6.9300
   18.510    6.7088
   18.645    6.7825
   18.780    6.6667
   18.915    6.8457
   19.050    8.1727
   19.185    6.6035
   19.320    6.5613
   19.455    6.3823
   19.590    6.7825
   19.725    6.4982
   19.860    6.8246
   19.995    6.3928
   20.130    6.2349
   20.265    6.2243
   20.400    6.6983
   20.535    6.7720
   20.670    6.3507
   20.805    6.7088
   20.940    6.3296
   21.075    6.9089
   21.210    6.8984
   21.345    7.4671
   21.480    6.8562
   21.615    6.4350
   21.750    6.4982
   21.885    6.5403
   22.020    6.7720
   22.155    6.6772
   22.290    6.6456
   22.425    6.4876
   22.560    7.0563
   22.695    6.5613
   22.830    6.4876
   22.965    6.5929
   23.100    6.8562
   23.235    6.5508
   23.370    6.5087
   23.505    6.6140
   23.640    6.6035
   23.775    6.5508
   23.910    6.4034
   24.045    6.1927
   24.180    6.9089
   24.315    6.4876
   24.450    6.6456
   24.585    6.3823
   24.720    6.1611
   24.855    6.3718
   24.990    6.6351
   25.125    6.4666
   25.260    6.4771
   25.395    6.5824
   25.530    6.7930
   25.665    6.4771
   25.800    6.3612
   25.935    6.6351
   26.070    6.3296
   26.205    6.5613
   26.340    6.4350
   26.475    6.5613
   26.610    5.9400
   26.745    6.7509
   26.880    6.1506
   27.015    6.0242
   27.150    6.6351
   27.285    6.2033
   27.420    5.9294
   27.555    6.4771
   27.690    6.3086
   27.825    6.1822
   27.960    7.1933
   28.095    6.8457
   28.230    6.0032
   28.365    6.4350
   28.500    6.2559
   28.635    6.3191
   28.770    5.8978
   28.905    6.5508
   29.040    6.6035
   29.175    6.2033
   29.310    6.4139
   29.445    6.2454
   29.580    5.9294
   29.715    6.3507
   29.850    6.2349
   29.985    6.0664
   30.120    5.8662
   30.255    5.9505
   30.390    5.8136
   30.525    6.1611
   30.660    5.7188
   30.795    5.9926
   30.930    6.2243
   31.065    6.1190
   31.200    6.2349
   31.335    6.0874
   31.470    5.6556
   31.605    6.1085
   31.740    6.4139
   31.875    6.7720
   32.010    6.6351
   32.145    8.1095
   32.280    5.9926
   32.415    5.8452
   32.550    5.5398
   32.685    6.0348
   32.820    5.7293
   32.955    5.9084
   33.090    6.0242
   33.225    5.7399
   33.360    5.8557
   33.495    5.9400
   33.630    6.0979
   33.765    6.1190
   33.900    6.6561
   34.035    6.0137
   34.170    6.1295
   34.305    5.8347
   34.440    5.7609
   34.575    5.4134
   34.710    5.9505
   34.845    5.4344
   34.980    5.8347
   35.115    5.8136
   35.250    5.8978
   35.385    5.5819
   35.520    5.5924
   35.655    5.8768
   35.790    5.5398
   35.925    5.8662
   36.060    5.3712
   36.195    6.0558
   36.330    5.3186
   36.465    5.9821
   36.600    5.5082
   36.735    5.7083
   36.870    5.5187
   37.005    5.8978
   37.140    5.8557
   37.275    5.7293
   37.410    5.3923
   37.545    5.3818
   37.680    5.4976
   37.815    5.4871
   37.950    5.8557
   38.085    5.3923
   38.220    5.4028
   38.355    5.6872
   38.490    5.4239
   38.625    6.2349
   38.760    5.5608
   38.895    5.2870
   39.030    5.7399
   39.165    5.6451
   39.300    5.4976
   39.435    5.6556
   39.570    5.5608
   39.705    5.6556
   39.840    5.3397
   39.975    5.7715
   39.990    5.3502