File: data/MOCOF-1/PXRD/PXRD_KE-252_Cu-Ka1_film-8mm_4s-deg_continuous.xyd
    2.000   14.2063
    2.135   13.4656
    2.270   13.8492
    2.405   12.7910
    2.540   13.2804
    2.675   13.2275
    2.810   14.0212
    2.945   13.2804
    3.080   13.1481
    3.215   14.2989
    3.350   13.8624
    3.485   15.3968
    3.620   16.8254
    3.755   22.0503
    3.890   14.7487
    4.025   14.4180
    4.160   14.0476
    4.295   14.0476
    4.430   14.4312
    4.565   14.4048
    4.700   15.1720
    4.835   15.3439
    4.970   15.8201
    5.105   17.1296
    5.240   18.3201
    5.375   18.9947
    5.510   18.3862
    5.645   17.0106
    5.780   16.4418
    5.915   14.9339
    6.050   15.1720
    6.185   13.6508
    6.320   13.3069
    6.455   13.1481
    6.590   12.7778
    6.725   12.6190
    6.860   11.7460
    6.995   11.5344
    7.130   10.8862
    7.265   11.0450
    7.400   11.0582
    7.535   10.1190
    7.670   10.6878
    7.805    9.1270
    7.940    9.7222
    8.075    9.4312
    8.210    9.3915
    8.345    9.2725
    8.480    8.5847
    8.615    8.9418
    8.750    8.7831
    8.885    9.0741
    9.020    9.0079
    9.155    8.7698
    9.290    8.6243
    9.425    9.3783
    9.560    9.1799
    9.695    8.0291
    9.830    8.5847
    9.965    8.5979
   10.100    9.4180
   10.235    9.4444
   10.370    9.3915
   10.505    9.0741
   10.640    9.4180
   10.775    9.2196
   10.910    9.5899
   11.045    9.5635
   11.180    9.2328
   11.315    9.3122
   11.450    9.2593
   11.585    8.8757
   11.720    9.2460
   11.855    8.8095
   11.990    8.4392
   12.125    8.6243
   12.260    8.6640
   12.395    8.6905
   12.530    8.4392
   12.665    8.3069
   12.800    8.6111
   12.935    8.4127
   13.070    8.2011
   13.205    8.3730
   13.340    8.2143
   13.475    8.7566
   13.610    8.5185
   13.745    8.3995
   13.880    8.7831
   14.015    8.9683
   14.150    8.5847
   14.285    9.0212
   14.420    8.9683
   14.555    8.8889
   14.690    8.2937
   14.825    8.2672
   14.960    8.2937
   15.095    8.5582
   15.230    8.3466
   15.365    8.4788
   15.500    8.6508
   15.635    8.2804
   15.770    8.0026
   15.905    7.3810
   16.040    8.0291
   16.175    7.9762
   16.310    7.8836
   16.445    8.1349
   16.580    8.4392
   16.715    8.1481
   16.850    8.2407
   16.985    8.3069
   17.120    8.2937
   17.255    7.6323
   17.390    7.8175
   17.525    7.8836
   17.660    8.0688
   17.795    8.4127
   17.930    7.9762
   18.065    7.7910
   18.200    7.6984
   18.335    8.1481
   18.470    7.7646
   18.605    7.7381
   18.740    7.2619
   18.875    7.4735
   19.010    7.3677
   19.145    7.3545
   19.280    7.1825
   19.415    7.4868
   19.550    7.5397
   19.685    6.9709
   19.820    7.5794
   19.955    7.7116
   20.090    7.4471
   20.225    7.0899
   20.360    7.0238
   20.495    7.0635
   20.630    7.1429
   20.765    7.1296
   20.900    6.5476
   21.035    6.7460
   21.170    7.2090
   21.305    6.9841
   21.440    6.6402
   21.575    6.8915
   21.710    7.1825
   21.845    6.7989
   21.980    6.8651
   22.115    6.6534
   22.250    6.9974
   22.385    6.6138
   22.520    6.9180
   22.655    6.5079
   22.790    6.8519
   22.925    6.5344
   23.060    6.2434
   23.195    6.4815
   23.330    6.1508
   23.465    6.0317
   23.600    6.6931
   23.735    5.9259
   23.870    5.8466
   24.005    5.9524
   24.140    6.3757
   24.275    5.8466
   24.410    5.5159
   24.545    5.8995
   24.680    6.0582
   24.815    5.6217
   24.950    5.5291
   25.085    5.9788
   25.220    5.5820
   25.355    5.3042
   25.490    5.8333
   25.625    5.6481
   25.760    6.0450
   25.895    5.6746
   26.030    5.5820
   26.165    5.3307
   26.300    5.0265
   26.435    5.5423
   26.570    5.4233
   26.705    5.4894
   26.840    5.3836
   26.975    5.3042
   27.110    5.7540
   27.245    4.8148
   27.380    4.8413
   27.515    4.8280
   27.650    4.8148
   27.785    5.3042
   27.920    4.5370
   28.055    4.4312
   28.190    5.0661
   28.325    5.0397
   28.460    4.6296
   28.595    4.8413
   28.730    4.9868
   28.865    4.9206
   29.000    4.6429
   29.135    4.4048
   29.270    4.3122
   29.405    4.1799
   29.540    4.4312
   29.675    4.2593
   29.810    4.1270
   29.945    4.1799
   30.080    3.9153
   30.215    3.9418
   30.350    3.9550
   30.485    3.9550
   30.620    3.7434
   30.755    3.8095
   30.890    3.7169
   31.025    4.0476
   31.160    3.4656
   31.295    3.6376
   31.430    3.4788
   31.565    3.6772
   31.700    3.6905
   31.835    3.2804
   31.970    3.3333
   32.105    3.3862
   32.240    3.4656
   32.375    3.5582
   32.510    3.3995
   32.645    3.4921
   32.780    3.4127
   32.915    3.6640
   33.050    3.4524
   33.185    3.3995
   33.320    3.4921
   33.455    3.0820
   33.590    3.0026
   33.725    3.5053
   33.860    3.4259
   33.995    3.0423
   34.130    3.1217
   34.265    3.3333
   34.400    3.1085
   34.535    3.3333
   34.670    3.5053
   34.805    3.0423
   34.940    3.0291
   35.075    3.0159
   35.210    3.1614
   35.345    2.9365
   35.480    3.0820
   35.615    3.1349
   35.750    3.0291
   35.885    2.8704
   36.020    2.9762
   36.155    2.9497
   36.290    3.2937
   36.425    3.0026
   36.560    2.8836
   36.695    2.9101
   36.830    3.0952
   36.965    2.9101
   37.100    2.7513
   37.235    3.0159
   37.370    3.0026
   37.505    2.9762
   37.640    2.9365
   37.775    2.9894
   37.910    2.8307
   38.045    2.6587
   38.180    2.7646
   38.315    2.5926
   38.450    3.0952
   38.585    3.0026
   38.720    3.0026
   38.855    2.7910
   38.990    2.5794
   39.125    2.8175
   39.260    2.6190
   39.395    2.4471
   39.530    2.6587
   39.665    2.8968
   39.800    2.5000
   39.935    2.4868
   39.980    2.7381