File: data/MOCOF-1/PXRD/PXRD_KE-001_Cu-Ka1_capillary-1mm_5s-deg.xyd
    1.500   36.8720
    1.635   39.3576
    1.770   41.9484
    1.905   48.6572
    2.040   55.3449
    2.175   68.0990
    2.310   84.8447
    2.445  111.6272
    2.580  155.8820
    2.715  248.4887
    2.850  206.8247
    2.985   45.9294
    3.120   18.4623
    3.255   12.3539
    3.390   10.0369
    3.525    8.3518
    3.660    7.8989
    3.795    8.0885
    3.930    7.4882
    4.065    8.4992
    4.200    9.1943
    4.335   10.1738
    4.470   11.9537
    4.605   15.5029
    4.740   21.8747
    4.875   25.1185
    5.010   12.2591
    5.145   11.6272
    5.280   15.5240
    5.415   23.7072
    5.550   38.8099
    5.685   26.7615
    5.820   10.8057
    5.955    7.6040
    6.090    6.0979
    6.225    5.4976
    6.360    5.2238
    6.495    5.4871
    6.630    5.4660
    6.765    5.6872
    6.900    6.8036
    7.035    8.1517
    7.170   11.6798
    7.305   18.0411
    7.440   21.2322
    7.575    9.1943
    7.710    5.7188
    7.845    4.9289
    7.980    4.2759
    8.115    4.3497
    8.250    4.5708
    8.385    4.7393
    8.520    4.3497
    8.655    4.5919
    8.790    4.4234
    8.925    4.0548
    9.060    4.2970
    9.195    4.4234
    9.330    4.8657
    9.465    5.0658
    9.600    6.3402
    9.735    7.5724
    9.870    5.0974
   10.005    4.7288
   10.140    4.6130
   10.275    3.4966
   10.410    3.7072
   10.545    3.8336
   10.680    3.8336
   10.815    3.7072
   10.950    3.7388
   11.085    3.7388
   11.220    3.8231
   11.355    3.6651
   11.490    3.8757
   11.625    4.0232
   11.760    3.7177
   11.895    3.8231
   12.030    3.8231
   12.165    4.1601
   12.300    4.1811
   12.435    3.8441
   12.570    3.8020
   12.705    3.7388
   12.840    3.9810
   12.975    4.0548
   13.110    3.9600
   13.245    3.8968
   13.380    3.4123
   13.515    3.6230
   13.650    4.2233
   13.785    4.1601
   13.920    4.0232
   14.055    4.6340
   14.190    4.5076
   14.325    4.2233
   14.460    4.2022
   14.595    3.9810
   14.730    4.1917
   14.865    4.2654
   15.000    3.9494
   15.135    4.0442
   15.270    3.8125
   15.405    4.0969
   15.540    3.9600
   15.675    4.0758
   15.810    3.9494
   15.945    4.1390
   16.080    4.0126
   16.215    3.8757
   16.350    4.1917
   16.485    3.9916
   16.620    4.0653
   16.755    3.8547
   16.890    3.8125
   17.025    3.9284
   17.160    3.9389
   17.295    3.8652
   17.430    3.7915
   17.565    3.5808
   17.700    4.0232
   17.835    4.0969
   17.970    3.9284
   18.105    4.1180
   18.240    3.9179
   18.375    4.3497
   18.510    4.1074
   18.645    3.8757
   18.780    3.9916
   18.915    3.9705
   19.050    4.0021
   19.185    3.7915
   19.320    3.8020
   19.455    3.9810
   19.590    3.7809
   19.725    3.7493
   19.860    4.0126
   19.995    4.0864
   20.130    3.8652
   20.265    3.7388
   20.400    3.5808
   20.535    3.8020
   20.670    3.8020
   20.805    3.9916
   20.940    3.7072
   21.075    3.6546
   21.210    3.8125
   21.345    3.6862
   21.480    4.0548
   21.615    3.8757
   21.750    3.9810
   21.885    4.0758
   22.020    3.6124
   22.155    3.7072
   22.290    3.7177
   22.425    3.8863
   22.560    4.1390
   22.695    3.6124
   22.830    4.0864
   22.965    4.0758
   23.100    3.7599
   23.235    3.9389
   23.370    4.0442
   23.505    3.8652
   23.640    3.9179
   23.775    4.1811
   23.910    4.1601
   24.045    4.0232
   24.180    4.4023
   24.315    4.0653
   24.450    4.5076
   24.585    4.5182
   24.720    5.1080
   24.855    5.1606
   24.990    5.9821
   25.125    6.0664
   25.260    6.1085
   25.395    6.1717
   25.530    5.5292
   25.665    4.9921
   25.800    5.1922
   25.935    4.8657
   26.070    4.8657
   26.205    4.4866
   26.340    4.4128
   26.475    4.0653
   26.610    3.8863
   26.745    4.2338
   26.880    3.8020
   27.015    3.6019
   27.150    3.6756
   27.285    3.7072
   27.420    3.4018
   27.555    3.1490
   27.690    3.8757
   27.825    3.6019
   27.960    3.5282
   28.095    3.1280
   28.230    3.4018
   28.365    3.2649
   28.500    3.3913
   28.635    3.4123
   28.770    3.0964
   28.905    2.9805
   29.040    3.1069
   29.175    3.2965
   29.310    3.2227
   29.445    3.0332
   29.580    3.1174
   29.715    2.9068
   29.850    3.1701
   29.985    3.0016
   30.120    3.2438
   30.255    3.0858
   30.390    2.9910
   30.525    2.9384
   30.660    3.0016
   30.795    2.7488
   30.930    2.7067
   31.065    2.8331
   31.200    2.9384
   31.335    2.6856
   31.470    2.7593
   31.605    2.7699
   31.740    2.7909
   31.875    2.6224
   32.010    2.4434
   32.145    2.5908
   32.280    2.5382
   32.415    2.3065
   32.550    2.2959
   32.685    2.4645
   32.820    2.4855
   32.955    2.4013
   33.090    2.5276
   33.225    2.4855
   33.360    2.4961
   33.495    2.2854
   33.630    2.2643
   33.765    2.1696
   33.900    2.3065
   34.035    2.5171
   34.170    1.9695
   34.305    2.1169
   34.440    2.1274
   34.575    2.1801
   34.710    1.7799
   34.845    2.1696
   34.980    1.9273
   35.115    2.0221
   35.250    1.7062
   35.385    1.9063
   35.520    2.1380
   35.655    1.7904
   35.790    2.0221
   35.925    1.9168
   36.060    1.8325
   36.195    1.6956
   36.330    1.8325
   36.465    1.8536
   36.600    1.7378
   36.735    1.9168
   36.870    1.6956
   37.005    1.6430
   37.140    1.6430
   37.275    1.6324
   37.410    1.6219
   37.545    1.7062
   37.680    1.9063
   37.815    1.6535
   37.950    1.5166
   38.085    1.6430
   38.220    1.9484
   38.355    1.4323
   38.490    1.6219
   38.625    1.4534
   38.760    1.5166
   38.895    1.5166
   39.030    1.7483
   39.165    1.7062
   39.300    1.7378
   39.435    1.5903
   39.570    1.5061
   39.705    1.5903
   39.840    1.5377
   39.975    1.5061
   39.990    1.6008