File: data/MOCOF-1/PXRD/PXRD_KE-282_Cu-Ka1_film-3mm_3s-deg.xyd
    1.500   15.3590
    1.635   14.3409
    1.770   13.3052
    1.905   11.7606
    2.040   10.7600
    2.175   10.9531
    2.310    9.7946
    2.445    9.2680
    2.580    9.7244
    2.715    8.7941
    2.850    9.1276
    2.985    8.8117
    3.120    8.6010
    3.255    8.9521
    3.390    8.8994
    3.525    9.4787
    3.660   10.1106
    3.795   14.4989
    3.930   10.7074
    4.065    8.5484
    4.200    8.2851
    4.335    7.9867
    4.470    8.6361
    4.605    8.3553
    4.740    8.7063
    4.875    8.3377
    5.010    8.5484
    5.145    8.9521
    5.280   10.9531
    5.415   11.7430
    5.550   10.7952
    5.685   10.4265
    5.820    9.9175
    5.955    8.3026
    6.090    8.6712
    6.225    8.2324
    6.360    8.0042
    6.495    8.0218
    6.630    8.1271
    6.765    8.4079
    6.900    7.3723
    7.035    7.3899
    7.170    7.6707
    7.305    7.0739
    7.440    6.6877
    7.575    6.6000
    7.710    6.8282
    7.845    6.5122
    7.980    6.6702
    8.115    6.0383
    8.250    6.3367
    8.385    6.1085
    8.520    6.0558
    8.655    6.1436
    8.790    6.3016
    8.925    6.5473
    9.060    6.2840
    9.195    6.4595
    9.330    6.7053
    9.465    7.2143
    9.600    6.8282
    9.735    6.1787
    9.870    6.3016
   10.005    6.4771
   10.140    6.5473
   10.275    6.8808
   10.410    6.1787
   10.545    6.2313
   10.680    6.0207
   10.815    6.7404
   10.950    6.4595
   11.085    6.6175
   11.220    6.1962
   11.355    5.8276
   11.490    6.2840
   11.625    6.5298
   11.760    6.6175
   11.895    6.4244
   12.030    6.3367
   12.165    5.4941
   12.300    5.8803
   12.435    6.7053
   12.570    6.0032
   12.705    5.3361
   12.840    5.3537
   12.975    6.1260
   13.110    5.3888
   13.245    5.9505
   13.380    5.8101
   13.515    5.4590
   13.650    5.6170
   13.785    5.6872
   13.920    5.8101
   14.055    5.7223
   14.190    6.0207
   14.325    6.2313
   14.460    6.2840
   14.595    6.1085
   14.730    5.8101
   14.865    5.4239
   15.000    5.8978
   15.135    5.3712
   15.270    5.9505
   15.405    5.1606
   15.540    5.7399
   15.675    5.6872
   15.810    5.7048
   15.945    5.4941
   16.080    5.3537
   16.215    5.6697
   16.350    5.4415
   16.485    5.5468
   16.620    5.8452
   16.755    5.2484
   16.890    5.3537
   17.025    5.6170
   17.160    5.7223
   17.295    5.5468
   17.430    5.5468
   17.565    5.6872
   17.700    5.6872
   17.835    5.0202
   17.970    5.1782
   18.105    5.8978
   18.240    5.7750
   18.375    5.3712
   18.510    5.3186
   18.645    5.6521
   18.780    5.1606
   18.915    5.3712
   19.050    5.7574
   19.185    5.4239
   19.320    4.9851
   19.455    5.7223
   19.590    5.5292
   19.725    5.3712
   19.860    5.2133
   19.995    5.2659
   20.130    5.4239
   20.265    5.2308
   20.400    5.4766
   20.535    5.1606
   20.670    5.4239
   20.805    5.5819
   20.940    5.4590
   21.075    4.7744
   21.210    5.5994
   21.345    5.3712
   21.480    5.3186
   21.615    5.5468
   21.750    5.2308
   21.885    5.2484
   22.020    5.0904
   22.155    4.8973
   22.290    5.5117
   22.425    4.9324
   22.560    5.1255
   22.695    5.0553
   22.830    5.1431
   22.965    5.2659
   23.100    5.1782
   23.235    4.5989
   23.370    5.0904
   23.505    5.3361
   23.640    4.7920
   23.775    4.5638
   23.910    5.1080
   24.045    4.5463
   24.180    4.8622
   24.315    5.1431
   24.450    4.6165
   24.585    4.5814
   24.720    4.9851
   24.855    4.8447
   24.990    4.8622
   25.125    4.7393
   25.260    4.4058
   25.395    4.5638
   25.530    4.6516
   25.665    4.6867
   25.800    4.8271
   25.935    4.8622
   26.070    4.8447
   26.205    4.6516
   26.340    4.7744
   26.475    4.4936
   26.610    4.3707
   26.745    4.5287
   26.880    4.5111
   27.015    4.5287
   27.150    4.4585
   27.285    4.0548
   27.420    4.3356
   27.555    4.5463
   27.690    4.4409
   27.825    3.8792
   27.960    4.0372
   28.095    4.1776
   28.230    4.0723
   28.365    4.2303
   28.500    4.3181
   28.635    4.5111
   28.770    4.2478
   28.905    4.5111
   29.040    3.8617
   29.175    4.1601
   29.310    4.2478
   29.445    3.8617
   29.580    3.6510
   29.715    3.9670
   29.850    3.4229
   29.985    3.7213
   30.120    3.8441
   30.255    3.5282
   30.390    3.6862
   30.525    3.5457
   30.660    3.7915
   30.795    3.8090
   30.930    3.8792
   31.065    3.4404
   31.200    3.5282
   31.335    3.5106
   31.470    3.5984
   31.605    3.1245
   31.740    3.4404
   31.875    3.4931
   32.010    3.1947
   32.145    3.4931
   32.280    3.2298
   32.415    3.3702
   32.550    3.3175
   32.685    3.4404
   32.820    3.4755
   32.955    3.2298
   33.090    3.5457
   33.225    3.1069
   33.360    3.0367
   33.495    3.1596
   33.630    3.6335
   33.765    3.2122
   33.900    3.0718
   34.035    2.8963
   34.170    3.0191
   34.305    3.0367
   34.440    3.4755
   34.575    3.2122
   34.710    2.9138
   34.845    3.2649
   34.980    3.0893
   35.115    3.0542
   35.250    3.5457
   35.385    3.0893
   35.520    3.0718
   35.655    3.0542
   35.790    3.1596
   35.925    3.3702
   36.060    3.0718
   36.195    3.3702
   36.330    2.8787
   36.465    3.3877
   36.600    3.0893
   36.735    3.0718
   36.870    3.3877
   37.005    2.8787
   37.140    3.1069
   37.275    2.8787
   37.410    2.7734
   37.545    3.1245
   37.680    2.9665
   37.815    2.8787
   37.950    3.3351
   38.085    2.8612
   38.220    3.0191
   38.355    2.9314
   38.490    3.0893
   38.625    2.8787
   38.760    2.8612
   38.895    2.7909
   39.030    2.8963
   39.165    3.1596
   39.300    3.1069
   39.435    3.1771
   39.570    2.8787
   39.705    2.8260
   39.840    2.7734
   39.975    3.0367
   39.990    2.8787