File: data/MOCOF-1/PXRD/PXRD_KE-272_Cu-Ka1_film-3mm_3s-deg.xyd
    1.500   16.4473
    1.635   15.2887
    1.770   13.4808
    1.905   13.1824
    2.040   11.9888
    2.175   11.9537
    2.310   10.7952
    2.445   10.1632
    2.580   10.4441
    2.715   10.0404
    2.850    9.4260
    2.985    9.3734
    3.120    9.6191
    3.255   10.5494
    3.390   13.0068
    3.525   17.9568
    3.660   29.1030
    3.795   61.3481
    3.930   27.4355
    4.065    8.8468
    4.200    8.7765
    4.335    8.6361
    4.470    8.4957
    4.605    8.4430
    4.740    9.4611
    4.875    8.3377
    5.010    9.5138
    5.145   10.2861
    5.280   12.7260
    5.415   16.5877
    5.550   14.0951
    5.685   10.3388
    5.820    9.8473
    5.955    8.9521
    6.090    8.9696
    6.225    7.8638
    6.360    8.3026
    6.495    7.6180
    6.630    8.4255
    6.765    9.6893
    6.900    7.2143
    7.035    7.0563
    7.170    7.0212
    7.305    7.0037
    7.440    6.6175
    7.575    7.3196
    7.710    7.8111
    7.845    7.5127
    7.980    6.1962
    8.115    6.1085
    8.250    5.6697
    8.385    5.3186
    8.520    5.6345
    8.655    5.8101
    8.790    5.7574
    8.925    5.5292
    9.060    4.9675
    9.195    5.4064
    9.330    5.4766
    9.465    7.3021
    9.600    9.6542
    9.735    4.7744
    9.870    5.5994
   10.005    5.6872
   10.140    5.8803
   10.275    7.2670
   10.410    6.0909
   10.545    5.3712
   10.680    5.8276
   10.815    5.3712
   10.950    6.1260
   11.085    7.3372
   11.220    5.8627
   11.355    5.8452
   11.490    5.6521
   11.625    5.8101
   11.760    8.0218
   11.895    5.5819
   12.030    5.4766
   12.165    5.3010
   12.300    5.2659
   12.435    5.1431
   12.570    5.3537
   12.705    5.4766
   12.840    5.5819
   12.975    7.1792
   13.110    5.4590
   13.245    5.3712
   13.380    5.4590
   13.515    6.2665
   13.650    5.2133
   13.785    5.1957
   13.920    5.4415
   14.055    6.2665
   14.190    5.6345
   14.325    5.4064
   14.460    5.3712
   14.595    5.5994
   14.730    5.6345
   14.865    5.7574
   15.000    5.3361
   15.135    6.0909
   15.270    5.6872
   15.405    4.5989
   15.540    5.4064
   15.675    4.9500
   15.810    4.7569
   15.945    4.8798
   16.080    5.7750
   16.215    5.1080
   16.350    5.0202
   16.485    5.3010
   16.620    6.1787
   16.755    5.0026
   16.890    5.3537
   17.025    5.7574
   17.160    5.6345
   17.295    4.8798
   17.430    5.4064
   17.565    5.3888
   17.700    4.8973
   17.835    4.8973
   17.970    5.9154
   18.105    4.9675
   18.240    4.5814
   18.375    5.8101
   18.510    4.9500
   18.645    4.8798
   18.780    4.9500
   18.915    5.0728
   19.050    5.2308
   19.185    5.0202
   19.320    5.3888
   19.455    5.1957
   19.590    5.1957
   19.725    4.6340
   19.860    4.7218
   19.995    4.8447
   20.130    4.6516
   20.265    4.5989
   20.400    6.6000
   20.535    4.8447
   20.670    4.6340
   20.805    4.7042
   20.940    4.8973
   21.075    4.9149
   21.210    4.6691
   21.345    4.5989
   21.480    4.3883
   21.615    4.4234
   21.750    4.3532
   21.885    4.8095
   22.020    4.6516
   22.155    4.7744
   22.290    4.4585
   22.425    4.1250
   22.560    5.6697
   22.695    4.8095
   22.830    4.3005
   22.965    5.9329
   23.100    4.8095
   23.235    4.8095
   23.370    4.4058
   23.505    4.4409
   23.640    4.6165
   23.775    4.4585
   23.910    4.4585
   24.045    4.4058
   24.180    4.0723
   24.315    3.9670
   24.450    4.1776
   24.585    4.1776
   24.720    3.8441
   24.855    3.9319
   24.990    4.1776
   25.125    4.4409
   25.260    3.9670
   25.395    3.9319
   25.530    4.1601
   25.665    4.2478
   25.800    4.4585
   25.935    3.9143
   26.070    3.8968
   26.205    3.6510
   26.340    3.5282
   26.475    3.8266
   26.610    3.6510
   26.745    3.7915
   26.880    3.6510
   27.015    3.9143
   27.150    3.5282
   27.285    3.5808
   27.420    3.0893
   27.555    3.5633
   27.690    3.7739
   27.825    3.5282
   27.960    3.6335
   28.095    3.1771
   28.230    3.7388
   28.365    3.4404
   28.500    3.9143
   28.635    3.2649
   28.770    3.5106
   28.905    3.4931
   29.040    3.5808
   29.175    3.6862
   29.310    3.8968
   29.445    3.2298
   29.580    2.8787
   29.715    3.2649
   29.850    3.3000
   29.985    3.1596
   30.120    2.9840
   30.255    3.3175
   30.390    3.3000
   30.525    2.8436
   30.660    3.4053
   30.795    2.9665
   30.930    3.1771
   31.065    3.0542
   31.200    3.2824
   31.335    2.8260
   31.470    3.0893
   31.605    2.8436
   31.740    2.9489
   31.875    2.7734
   32.010    2.7032
   32.145    3.3526
   32.280    2.6330
   32.415    2.5628
   32.550    2.6505
   32.685    2.7032
   32.820    2.6330
   32.955    2.7207
   33.090    2.5452
   33.225    2.7734
   33.360    2.4048
   33.495    2.6505
   33.630    2.5452
   33.765    3.1420
   33.900    2.9840
   34.035    2.8612
   34.170    2.7207
   34.305    2.6330
   34.440    2.5101
   34.575    2.2292
   34.710    2.5979
   34.845    2.6856
   34.980    2.5276
   35.115    2.0888
   35.250    2.4925
   35.385    2.2995
   35.520    2.4925
   35.655    2.5101
   35.790    2.5276
   35.925    2.4048
   36.060    2.3872
   36.195    2.4925
   36.330    2.3697
   36.465    2.6681
   36.600    2.1941
   36.735    2.4925
   36.870    2.1415
   37.005    2.4048
   37.140    2.4399
   37.275    2.2643
   37.410    2.2643
   37.545    2.2995
   37.680    2.3170
   37.815    2.5452
   37.950    2.5628
   38.085    2.1766
   38.220    2.2819
   38.355    2.6856
   38.490    2.2643
   38.625    2.6330
   38.760    2.2117
   38.895    2.5803
   39.030    2.1064
   39.165    2.2995
   39.300    2.2819
   39.435    2.3697
   39.570    2.1766
   39.705    2.2995
   39.840    2.2468
   39.975    2.3697
   39.990    2.5101