File: data/MOCOF-1/PXRD/PXRD_Blank_Co-Ka1_capillary-1mm_3s-deg.xyd
    1.500    0.4637
    1.695    0.4815
    1.890    0.3745
    2.085    0.5172
    2.280    0.4102
    2.475    0.6421
    2.670    0.4815
    2.865    0.5529
    3.060    0.4459
    3.255    0.4994
    3.450    0.6064
    3.645    0.5529
    3.840    0.4102
    4.035    0.5529
    4.230    0.5707
    4.425    0.6242
    4.620    0.3745
    4.815    0.5707
    5.010    0.4994
    5.205    0.6242
    5.400    0.6599
    5.595    0.3389
    5.790    0.4280
    5.985    0.6599
    6.180    0.6421
    6.375    0.5886
    6.570    0.5707
    6.765    0.6064
    6.960    0.5707
    7.155    0.5350
    7.350    0.4994
    7.545    0.5350
    7.740    0.5350
    7.935    0.4637
    8.130    0.4994
    8.325    0.4994
    8.520    0.6599
    8.715    0.5886
    8.910    0.4637
    9.105    0.6777
    9.300    0.4459
    9.495    0.4994
    9.690    0.5172
    9.885    0.5529
   10.080    0.5350
   10.275    0.4815
   10.470    0.5529
   10.665    0.3924
   10.860    0.4280
   11.055    0.5707
   11.250    0.4815
   11.445    0.4459
   11.640    0.4280
   11.835    0.4994
   12.030    0.5350
   12.225    0.3745
   12.420    0.4815
   12.615    0.5172
   12.810    0.5707
   13.005    0.4459
   13.200    0.5350
   13.395    0.4637
   13.590    0.4459
   13.785    0.4637
   13.980    0.5529
   14.175    0.3567
   14.370    0.3389
   14.565    0.4815
   14.760    0.7134
   14.955    0.4459
   15.150    0.4994
   15.345    0.4459
   15.540    0.6242
   15.735    0.4637
   15.930    0.5172
   16.125    0.5707
   16.320    0.4994
   16.515    0.5886
   16.710    0.4637
   16.905    0.5172
   17.100    0.4102
   17.295    0.3745
   17.490    0.4637
   17.685    0.4994
   17.880    0.5172
   18.075    0.4280
   18.270    0.4102
   18.465    0.4280
   18.660    0.3924
   18.855    0.4815
   19.050    0.3745
   19.245    0.3032
   19.440    0.3745
   19.635    0.4637
   19.830    0.3032
   20.025    0.4102
   20.220    0.4102
   20.415    0.5350
   20.610    0.5707
   20.805    0.5172
   21.000    0.3745
   21.195    0.4994
   21.390    0.3389
   21.585    0.5172
   21.780    0.4637
   21.975    0.5707
   22.170    0.4459
   22.365    0.3924
   22.560    0.4815
   22.755    0.4102
   22.950    0.4459
   23.145    0.4994
   23.340    0.4994
   23.535    0.5350
   23.730    0.6599
   23.925    0.4637
   24.120    0.4459
   24.315    0.4994
   24.510    0.5707
   24.705    0.5172
   24.900    0.4459
   25.095    0.5707
   25.290    0.5886
   25.485    0.4459
   25.680    0.4994
   25.875    0.5172
   26.070    0.6064
   26.265    0.5350
   26.460    0.4994
   26.655    0.5172
   26.850    0.4815
   27.045    0.4459
   27.240    0.6599
   27.435    0.4815
   27.630    0.4102
   27.825    0.5350
   28.020    0.5172
   28.215    0.5886
   28.410    0.4459
   28.605    0.4994
   28.800    0.5529
   28.995    0.4994
   29.190    0.4815
   29.385    0.3745
   29.580    0.4637
   29.775    0.4459
   29.970    0.4280
   30.165    0.6599
   30.360    0.4815
   30.555    0.4102
   30.750    0.5172
   30.945    0.3745
   31.140    0.5529
   31.335    0.6064
   31.530    0.4280
   31.725    0.4815
   31.920    0.3924
   32.115    0.4280
   32.310    0.4102
   32.505    0.5707
   32.700    0.4637
   32.895    0.3032
   33.090    0.5172
   33.285    0.3567
   33.480    0.4994
   33.675    0.4637
   33.870    0.3567
   34.065    0.3032
   34.260    0.2854
   34.455    0.2675
   34.650    0.4994
   34.845    0.4637
   35.040    0.3924
   35.235    0.4637
   35.430    0.4102
   35.625    0.3032
   35.820    0.3567
   36.015    0.5172
   36.210    0.3924
   36.405    0.2675
   36.600    0.4637
   36.795    0.3745
   36.990    0.3745
   37.185    0.2319
   37.380    0.1962
   37.575    0.3032
   37.770    0.3567
   37.965    0.3389
   38.160    0.3567
   38.355    0.3924
   38.550    0.3210
   38.745    0.3210
   38.940    0.3567
   39.135    0.3032
   39.330    0.4637
   39.525    0.3745
   39.720    0.3032
   39.915    0.4102
   40.110    0.3032
   40.305    0.3032
   40.500    0.1962
   40.695    0.3210
   40.890    0.1070
   41.085    0.1783
   41.280    0.2319
   41.475    0.2854
   41.670    0.2497
   41.865    0.2497
   42.060    0.1962
   42.255    0.1962
   42.450    0.2854
   42.645    0.1605
   42.840    0.2675
   43.035    0.1427
   43.230    0.2319
   43.425    0.1605
   43.620    0.2319
   43.815    0.1962
   44.010    0.1783
   44.205    0.2854
   44.400    0.1962
   44.595    0.2319
   44.790    0.2854
   44.985    0.1070
   45.180    0.2140
   45.375    0.1605
   45.570    0.1248
   45.765    0.0892
   45.960    0.1070
   46.155    0.1962
   46.350    0.1605
   46.545    0.2140
   46.740    0.2675
   46.935    0.2497
   47.130    0.1962
   47.325    0.1248
   47.520    0.2319
   47.715    0.2140
   47.910    0.1962
   48.105    0.2319
   48.300    0.1783
   48.495    0.1248
   48.690    0.1783
   48.885    0.1783
   49.080    0.1427
   49.275    0.1605
   49.470    0.1427
   49.665    0.1070
   49.860    0.2319
   50.055    0.1070
   50.250    0.1070
   50.445    0.1605
   50.640    0.1427
   50.835    0.1427
   51.030    0.0713
   51.225    0.2140
   51.420    0.2675
   51.615    0.1427
   51.810    0.1783
   52.005    0.1605
   52.200    0.0892
   52.395    0.1427
   52.590    0.1248
   52.785    0.1427
   52.980    0.1248
   53.175    0.1070
   53.370    0.1962
   53.565    0.1605
   53.760    0.1070
   53.955    0.1783
   54.150    0.1070
   54.345    0.1783
   54.540    0.1070
   54.735    0.1783
   54.930    0.1070
   55.125    0.0892
   55.320    0.0713
   55.515    0.0892
   55.710    0.0713
   55.905    0.1070
   56.100    0.1605
   56.295    0.0892
   56.490    0.1605
   56.685    0.0713
   56.880    0.1248
   57.075    0.1248
   57.270    0.1605
   57.465    0.0713
   57.660    0.0892
   57.855    0.1427
   58.050    0.1070
   58.245    0.0713
   58.440    0.1248
   58.635    0.2497
   58.830    0.1605
   59.025    0.1248
   59.220    0.0713
   59.415    0.1962
   59.610    0.1070
   59.805    0.1248
   59.985    0.1248