File: data/MOCOF-1/PXRD/PXRD_KE-179_Cu-Ka1_capillary-1mm_5s-deg.xyd
    1.500   29.5103
    1.635   24.9605
    1.770   21.9379
    1.905   18.2096
    2.040   17.2722
    2.175   16.4613
    2.310   15.1764
    2.445   14.8499
    2.580   16.1137
    2.715   16.3349
    2.850   17.9358
    2.985   20.5161
    3.120   22.6119
    3.255   28.3834
    3.390   40.5687
    3.525   35.4397
    3.660   18.5150
    3.795   18.4939
    3.930   19.7262
    4.065   21.4323
    4.200   18.4308
    4.335   12.8383
    4.470    9.2996
    4.605    7.1617
    4.740    6.7720
    4.875    6.6035
    5.010    6.3928
    5.145    6.2243
    5.280    5.8136
    5.415    6.1506
    5.550    5.7504
    5.685    6.1506
    5.820    5.8241
    5.955    5.8452
    6.090    5.6872
    6.225    5.9084
    6.360    6.0979
    6.495    6.5403
    6.630    6.5508
    6.765    7.2670
    6.900    8.9837
    7.035    8.2991
    7.170    5.8873
    7.305    5.7715
    7.440    6.2243
    7.575    6.1401
    7.710    6.1506
    7.845    6.2770
    7.980    6.4034
    8.115    6.7088
    8.250    6.8668
    8.385    6.8562
    8.520    6.2559
    8.655    6.4244
    8.790    6.2665
    8.925    5.8768
    9.060    5.8241
    9.195    5.4134
    9.330    5.3607
    9.465    5.6451
    9.600    5.6977
    9.735    5.9084
    9.870    5.6240
   10.005    5.7820
   10.140    5.4555
   10.275    5.6345
   10.410    5.6661
   10.545    5.6451
   10.680    5.6345
   10.815    5.3607
   10.950    5.7083
   11.085    5.0448
   11.220    5.7504
   11.355    5.4344
   11.490    5.5187
   11.625    5.6345
   11.760    5.3818
   11.895    5.5714
   12.030    5.3818
   12.165    5.2343
   12.300    5.3081
   12.435    5.4239
   12.570    5.4344
   12.705    5.5292
   12.840    5.5714
   12.975    4.8657
   13.110    5.2554
   13.245    5.4660
   13.380    5.0658
   13.515    5.2659
   13.650    5.2027
   13.785    5.1080
   13.920    5.1711
   14.055    5.6661
   14.190    5.3502
   14.325    4.8763
   14.460    5.0237
   14.595    5.5819
   14.730    5.2027
   14.865    5.1395
   15.000    4.9394
   15.135    4.9184
   15.270    5.4450
   15.405    4.8236
   15.540    5.0132
   15.675    5.3397
   15.810    4.8763
   15.945    5.1290
   16.080    4.9394
   16.215    5.0342
   16.350    5.1606
   16.485    4.9921
   16.620    4.9184
   16.755    5.1817
   16.890    5.2449
   17.025    4.8552
   17.160    5.2554
   17.295    5.2554
   17.430    5.0974
   17.565    5.1395
   17.700    5.0658
   17.835    5.0448
   17.970    5.1185
   18.105    5.2765
   18.240    5.4450
   18.375    4.8763
   18.510    5.0764
   18.645    5.0448
   18.780    5.3712
   18.915    5.6661
   19.050    5.2554
   19.185    5.0869
   19.320    5.3502
   19.455    5.1817
   19.590    5.4344
   19.725    5.5714
   19.860    5.3818
   19.995    5.2238
   20.130    5.5292
   20.265    5.5187
   20.400    5.6556
   20.535    5.3607
   20.670    5.5187
   20.805    5.5292
   20.940    5.5398
   21.075    5.6029
   21.210    5.3712
   21.345    5.0764
   21.480    5.3502
   21.615    5.0342
   21.750    5.2133
   21.885    5.5292
   22.020    5.5924
   22.155    5.3712
   22.290    4.9816
   22.425    5.6661
   22.560    5.4555
   22.695    5.7293
   22.830    5.5608
   22.965    5.1711
   23.100    5.5608
   23.235    5.3502
   23.370    5.4766
   23.505    5.4028
   23.640    5.3607
   23.775    5.2870
   23.910    4.8236
   24.045    4.9289
   24.180    4.9289
   24.315    5.2449
   24.450    5.1817
   24.585    4.9605
   24.720    5.2765
   24.855    4.8657
   24.990    4.9078
   25.125    5.3291
   25.260    5.1080
   25.395    5.1922
   25.530    4.7815
   25.665    4.9078
   25.800    4.9605
   25.935    4.9289
   26.070    4.9184
   26.205    5.0342
   26.340    4.9605
   26.475    4.6551
   26.610    5.3923
   26.745    5.0342
   26.880    4.8025
   27.015    5.2238
   27.150    4.8131
   27.285    4.5603
   27.420    4.7604
   27.555    4.5392
   27.690    5.0026
   27.825    4.7604
   27.960    4.7815
   28.095    4.7815
   28.230    4.6235
   28.365    5.0658
   28.500    4.6024
   28.635    4.5498
   28.770    4.6235
   28.905    4.4971
   29.040    4.7183
   29.175    4.5287
   29.310    4.4971
   29.445    4.6340
   29.580    4.5708
   29.715    4.5498
   29.850    4.4023
   29.985    4.4023
   30.120    4.5392
   30.255    4.2233
   30.390    4.2443
   30.525    4.5287
   30.660    4.4760
   30.795    4.2443
   30.930    4.1601
   31.065    4.2127
   31.200    4.2759
   31.335    4.3918
   31.470    4.3075
   31.605    4.3075
   31.740    4.3075
   31.875    3.7177
   32.010    4.2970
   32.145    4.2127
   32.280    4.2970
   32.415    4.2022
   32.550    4.2970
   32.685    4.0969
   32.820    4.0758
   32.955    4.0232
   33.090    4.0969
   33.225    3.7283
   33.360    3.9389
   33.495    4.2654
   33.630    3.7809
   33.765    3.7493
   33.900    3.6651
   34.035    3.8336
   34.170    3.9073
   34.305    4.0442
   34.440    3.8336
   34.575    3.7704
   34.710    3.7809
   34.845    3.9600
   34.980    3.5703
   35.115    3.8020
   35.250    3.8757
   35.385    3.7704
   35.520    3.5914
   35.655    3.5071
   35.790    3.7388
   35.925    3.6440
   36.060    3.8441
   36.195    3.7177
   36.330    3.7388
   36.465    3.5282
   36.600    3.4755
   36.735    3.8968
   36.870    3.1069
   37.005    3.5598
   37.140    3.6967
   37.275    3.7809
   37.410    3.5176
   37.545    3.4544
   37.680    3.2754
   37.815    3.4229
   37.950    3.6019
   38.085    3.2438
   38.220    3.4229
   38.355    3.4334
   38.490    3.5176
   38.625    3.3913
   38.760    3.4544
   38.895    3.3702
   39.030    3.4123
   39.165    3.6230
   39.300    3.2649
   39.435    3.5492
   39.570    3.3491
   39.705    3.9810
   39.840    3.1385
   39.975    3.5808
   39.990    3.2333