File: data/MOCOF-1/PXRD/PXRD_KE-156_Cu-Ka1_capillary-1mm_5s-deg.xyd
    1.500   20.4213
    1.635   19.7683
    1.770   17.5145
    1.905   17.0195
    2.040   16.0506
    2.175   16.7773
    2.310   17.7672
    2.445   18.8099
    2.580   20.9900
    2.715   24.4760
    2.850   29.2154
    2.985   36.1769
    3.120   47.7620
    3.255   67.7304
    3.390  105.6030
    3.525   90.4581
    3.660   44.4444
    3.795   42.1696
    3.930   46.8668
    4.065   46.1085
    4.200   36.0716
    4.335   22.4013
    4.470   14.2917
    4.605   10.3949
    4.740    8.4255
    4.875    7.4671
    5.010    6.5929
    5.145    6.0558
    5.280    6.2875
    5.415    5.9400
    5.550    5.6556
    5.685    5.3818
    5.820    5.3712
    5.955    5.3818
    6.090    5.4450
    6.225    5.6451
    6.360    6.0979
    6.495    6.4139
    6.630    7.3618
    6.765    9.9210
    6.900   14.1022
    7.035   11.8589
    7.170    7.2038
    7.305    5.8662
    7.440    6.2875
    7.575    6.4139
    7.710    6.8246
    7.845    7.1722
    7.980    7.9094
    8.115    8.1517
    8.250    8.3202
    8.385    7.9094
    8.520    7.4460
    8.655    6.6667
    8.790    6.4350
    8.925    5.5292
    9.060    5.1290
    9.195    5.2554
    9.330    5.4871
    9.465    5.0026
    9.600    4.8552
    9.735    5.1290
    9.870    5.3712
   10.005    4.6445
   10.140    5.0553
   10.275    5.2133
   10.410    5.1711
   10.545    5.2554
   10.680    4.9500
   10.815    4.6551
   10.950    4.6551
   11.085    4.5603
   11.220    4.7920
   11.355    4.9710
   11.490    4.8763
   11.625    4.7393
   11.760    4.9816
   11.895    5.0342
   12.030    5.1817
   12.165    5.1606
   12.300    5.5608
   12.435    5.2027
   12.570    5.3397
   12.705    5.1290
   12.840    5.2659
   12.975    5.0974
   13.110    4.8447
   13.245    5.0237
   13.380    5.2238
   13.515    4.9710
   13.650    5.0026
   13.785    4.4550
   13.920    5.1080
   14.055    5.0448
   14.190    5.0448
   14.325    4.8763
   14.460    4.6656
   14.595    4.7920
   14.730    4.6340
   14.865    4.6867
   15.000    4.8236
   15.135    4.6235
   15.270    4.3707
   15.405    4.6656
   15.540    4.7604
   15.675    4.8341
   15.810    4.5392
   15.945    4.8236
   16.080    4.9394
   16.215    4.8763
   16.350    4.6235
   16.485    4.8131
   16.620    4.6972
   16.755    4.6445
   16.890    4.8131
   17.025    4.8131
   17.160    4.5919
   17.295    4.5814
   17.430    4.8236
   17.565    4.8025
   17.700    4.7920
   17.835    4.9710
   17.970    5.0132
   18.105    4.8447
   18.240    4.7077
   18.375    4.2654
   18.510    4.7499
   18.645    4.8131
   18.780    4.6130
   18.915    4.7499
   19.050    4.6340
   19.185    4.6024
   19.320    5.3291
   19.455    5.0026
   19.590    5.4871
   19.725    5.1395
   19.860    5.4555
   19.995    5.3712
   20.130    5.4555
   20.265    5.2554
   20.400    5.1922
   20.535    5.2449
   20.670    5.2975
   20.805    5.3923
   20.940    4.9710
   21.075    5.4871
   21.210    5.3712
   21.345    5.3923
   21.480    5.0132
   21.615    5.4344
   21.750    5.1080
   21.885    5.2870
   22.020    5.4976
   22.155    6.0558
   22.290    5.2765
   22.425    5.3502
   22.560    5.4134
   22.695    5.0974
   22.830    5.5503
   22.965    5.2659
   23.100    5.4134
   23.235    4.9816
   23.370    5.6135
   23.505    5.3397
   23.640    4.8868
   23.775    5.0553
   23.910    5.1606
   24.045    4.8552
   24.180    4.8868
   24.315    4.7077
   24.450    5.2449
   24.585    4.9289
   24.720    4.9500
   24.855    4.8763
   24.990    5.3397
   25.125    4.7604
   25.260    4.4128
   25.395    4.6972
   25.530    4.9921
   25.665    4.6761
   25.800    4.5392
   25.935    4.5603
   26.070    4.4339
   26.205    4.5603
   26.340    4.7709
   26.475    4.5076
   26.610    4.4023
   26.745    4.6656
   26.880    4.3918
   27.015    4.4234
   27.150    4.3602
   27.285    4.3391
   27.420    4.5814
   27.555    4.5603
   27.690    4.6024
   27.825    4.3602
   27.960    4.3075
   28.095    4.2549
   28.230    4.2865
   28.365    4.3497
   28.500    4.5076
   28.635    4.1601
   28.770    4.6340
   28.905    4.2865
   29.040    4.1496
   29.175    4.4971
   29.310    4.3602
   29.445    3.9284
   29.580    4.0864
   29.715    3.8336
   29.850    4.1496
   29.985    4.0969
   30.120    4.0548
   30.255    4.1811
   30.390    3.9600
   30.525    4.0758
   30.660    4.1601
   30.795    3.9600
   30.930    3.9494
   31.065    4.1601
   31.200    4.0021
   31.335    4.0126
   31.470    3.9179
   31.605    4.1074
   31.740    4.1601
   31.875    4.0864
   32.010    4.1074
   32.145    3.7809
   32.280    3.6651
   32.415    3.9494
   32.550    4.0969
   32.685    3.7915
   32.820    3.9389
   32.955    3.8020
   33.090    3.7177
   33.225    3.5282
   33.360    3.6967
   33.495    3.8336
   33.630    3.6335
   33.765    3.5282
   33.900    3.7599
   34.035    3.5387
   34.170    3.5071
   34.305    3.2859
   34.440    3.4229
   34.575    3.5703
   34.710    3.7283
   34.845    3.5387
   34.980    3.2859
   35.115    3.2965
   35.250    2.8752
   35.385    3.5387
   35.520    3.6546
   35.655    3.4755
   35.790    3.3491
   35.925    3.2333
   36.060    3.2965
   36.195    3.3702
   36.330    3.3491
   36.465    3.0858
   36.600    3.0542
   36.735    3.3386
   36.870    3.0648
   37.005    3.0016
   37.140    3.1490
   37.275    3.0437
   37.410    3.2227
   37.545    3.2333
   37.680    2.9279
   37.815    3.4439
   37.950    2.8015
   38.085    2.9595
   38.220    3.0332
   38.355    3.4229
   38.490    3.1912
   38.625    3.1806
   38.760    3.0858
   38.895    3.0226
   39.030    3.2438
   39.165    3.2333
   39.300    3.2438
   39.435    3.2017
   39.570    3.2122
   39.705    3.0648
   39.840    2.9700
   39.975    3.2859
   39.990    3.1806