File: data/MOCOF-1/PXRD/PXRD_KE-130_Cu-Ka1_film-3mm_5s-deg.xyd
    1.500   23.6756
    1.635   21.2638
    1.770   19.3049
    1.905   16.9879
    2.040   15.6398
    2.175   14.7551
    2.310   14.0706
    2.445   13.4913
    2.580   12.9858
    2.715   14.6498
    2.850   16.6403
    2.985   22.8541
    3.120   32.8067
    3.255   53.4702
    3.390  100.7372
    3.525   86.4560
    3.660   33.2912
    3.795   35.5029
    3.930   45.6451
    4.065   51.8062
    4.200   40.7899
    4.335   24.0337
    4.470   14.3971
    4.605   10.9742
    4.740    9.2364
    4.875    8.9100
    5.010    8.4360
    5.145    8.8257
    5.280    8.5835
    5.415    9.1522
    5.550    8.9415
    5.685    7.9726
    5.820    7.5619
    5.955    7.0037
    6.090    6.9194
    6.225    7.2670
    6.360    6.5719
    6.495    6.9194
    6.630    7.5197
    6.765    9.0574
    6.900   14.5656
    7.035   12.7225
    7.170    7.3934
    7.305    6.5508
    7.440    6.6667
    7.575    6.6561
    7.710    6.4350
    7.845    7.2986
    7.980    7.6567
    8.115    7.8884
    8.250    8.7098
    8.385    8.2149
    8.520    7.6040
    8.655    6.9300
    8.790    5.8978
    8.925    5.1817
    9.060    5.7083
    9.195    5.1501
    9.330    4.7920
    9.465    5.2765
    9.600    4.9921
    9.735    5.0342
    9.870    4.9500
   10.005    4.8552
   10.140    4.7288
   10.275    4.9289
   10.410    5.4344
   10.545    5.6977
   10.680    5.2238
   10.815    5.0974
   10.950    4.9184
   11.085    5.0448
   11.220    5.3081
   11.355    5.4660
   11.490    5.4450
   11.625    5.0342
   11.760    5.3291
   11.895    5.3081
   12.030    5.2238
   12.165    5.6767
   12.300    5.4976
   12.435    5.8031
   12.570    5.5398
   12.705    5.2554
   12.840    5.1185
   12.975    5.2765
   13.110    4.8341
   13.245    5.3502
   13.380    5.4766
   13.515    5.3081
   13.650    5.3291
   13.785    4.9078
   13.920    5.0658
   14.055    5.5819
   14.190    5.4660
   14.325    5.0448
   14.460    5.0764
   14.595    5.0974
   14.730    5.6556
   14.865    5.0553
   15.000    4.5287
   15.135    4.8447
   15.270    5.1501
   15.405    5.3186
   15.540    4.5603
   15.675    4.9816
   15.810    5.1395
   15.945    5.2027
   16.080    4.5919
   16.215    4.5182
   16.350    4.5603
   16.485    5.1395
   16.620    4.7183
   16.755    4.9184
   16.890    4.8341
   17.025    4.5919
   17.160    4.7920
   17.295    4.8131
   17.430    4.5287
   17.565    4.7393
   17.700    4.8657
   17.835    4.7815
   17.970    4.8763
   18.105    4.8131
   18.240    4.8763
   18.375    4.9078
   18.510    4.7709
   18.645    4.9289
   18.780    4.7920
   18.915    4.9289
   19.050    5.0132
   19.185    4.8868
   19.320    4.9289
   19.455    5.3186
   19.590    4.9816
   19.725    5.1606
   19.860    4.6867
   19.995    5.1080
   20.130    4.9816
   20.265    5.2449
   20.400    5.0342
   20.535    4.7183
   20.670    5.0764
   20.805    5.0237
   20.940    4.6235
   21.075    5.0342
   21.210    5.0237
   21.345    5.2449
   21.480    5.0764
   21.615    4.7604
   21.750    5.0342
   21.885    4.9394
   22.020    5.2765
   22.155    5.4028
   22.290    5.0132
   22.425    5.0658
   22.560    4.7499
   22.695    5.0132
   22.830    4.4760
   22.965    4.7393
   23.100    4.6340
   23.235    4.5076
   23.370    4.5603
   23.505    4.5814
   23.640    4.4655
   23.775    4.6235
   23.910    4.4339
   24.045    4.4760
   24.180    4.1074
   24.315    4.3391
   24.450    4.3602
   24.585    4.5919
   24.720    4.3602
   24.855    4.2865
   24.990    4.4866
   25.125    3.9810
   25.260    4.1074
   25.395    4.2549
   25.530    4.2549
   25.665    4.0758
   25.800    4.0337
   25.935    4.1390
   26.070    3.9179
   26.205    4.2970
   26.340    4.1601
   26.475    3.8757
   26.610    3.6756
   26.745    3.8757
   26.880    4.0758
   27.015    3.7493
   27.150    3.7177
   27.285    3.5598
   27.420    3.7072
   27.555    4.0337
   27.690    4.0232
   27.825    4.0337
   27.960    3.5176
   28.095    4.0232
   28.230    3.8020
   28.365    3.6862
   28.500    4.0442
   28.635    4.0758
   28.770    3.7704
   28.905    3.9389
   29.040    3.7915
   29.175    3.5492
   29.310    3.7493
   29.445    3.4966
   29.580    3.5808
   29.715    3.5282
   29.850    3.5914
   29.985    3.6546
   30.120    3.4966
   30.255    3.3702
   30.390    3.5176
   30.525    3.0858
   30.660    3.4018
   30.795    3.4123
   30.930    3.7283
   31.065    3.3597
   31.200    3.2859
   31.335    3.3491
   31.470    3.4018
   31.605    3.2965
   31.740    3.4123
   31.875    3.5492
   32.010    3.2122
   32.145    3.4439
   32.280    3.3175
   32.415    3.4123
   32.550    3.2649
   32.685    3.2122
   32.820    2.9910
   32.955    3.2649
   33.090    3.0753
   33.225    3.2965
   33.360    3.5176
   33.495    3.0648
   33.630    2.9805
   33.765    3.1385
   33.900    3.2333
   34.035    3.1174
   34.170    2.8436
   34.305    3.2859
   34.440    2.8120
   34.575    3.0753
   34.710    3.0226
   34.845    3.2754
   34.980    3.0332
   35.115    2.9805
   35.250    3.1069
   35.385    3.3070
   35.520    2.9700
   35.655    3.0542
   35.790    3.1701
   35.925    3.0332
   36.060    3.2543
   36.195    3.2649
   36.330    3.1069
   36.465    2.8857
   36.600    2.8331
   36.735    3.2859
   36.870    3.3386
   37.005    3.0121
   37.140    3.3491
   37.275    3.2543
   37.410    2.9173
   37.545    2.9384
   37.680    3.1069
   37.815    2.9489
   37.950    2.9489
   38.085    2.7909
   38.220    3.0121
   38.355    3.1280
   38.490    3.1069
   38.625    3.1596
   38.760    3.0437
   38.895    2.9700
   39.030    2.9910
   39.165    3.0648
   39.300    2.8331
   39.435    2.9173
   39.570    2.8963
   39.705    2.7383
   39.840    3.0121
   39.975    2.9700
   39.990    3.1174