File: data/MOCOF-1/PXRD/PXRD_KE-195_Cu-Ka1_capillary-1mm_5s-deg.xyd
    1.500   16.7562
    1.635   14.5024
    1.770   13.3755
    1.905   10.8478
    2.040    9.9315
    2.175    8.9310
    2.310    8.1622
    2.445    7.1617
    2.580    6.9826
    2.715    6.5087
    2.850    5.6767
    2.985    5.3818
    3.120    4.8447
    3.255    4.7393
    3.390    4.6445
    3.525    4.2865
    3.660    4.4128
    3.795    4.1601
    3.930    3.6862
    4.065    4.1917
    4.200    3.7915
    4.335    3.9494
    4.470    4.2127
    4.605    3.7809
    4.740    3.4650
    4.875    3.4966
    5.010    3.4544
    5.145    3.3702
    5.280    3.3913
    5.415    3.4123
    5.550    3.2017
    5.685    3.2227
    5.820    3.1069
    5.955    3.3175
    6.090    2.8647
    6.225    3.0437
    6.360    3.1280
    6.495    2.8120
    6.630    2.9489
    6.765    2.8963
    6.900    3.0226
    7.035    3.1385
    7.170    3.1280
    7.305    2.9173
    7.440    3.3070
    7.575    3.0648
    7.710    2.9595
    7.845    2.9173
    7.980    2.8857
    8.115    3.0332
    8.250    2.8436
    8.385    2.8436
    8.520    2.9805
    8.655    2.8963
    8.790    3.0332
    8.925    2.8857
    9.060    2.9595
    9.195    3.0121
    9.330    2.7488
    9.465    2.9700
    9.600    2.9068
    9.735    2.6224
    9.870    2.7278
   10.005    2.7067
   10.140    2.8120
   10.275    3.0016
   10.410    2.5382
   10.545    2.7278
   10.680    3.0121
   10.815    2.9805
   10.950    2.8331
   11.085    2.4855
   11.220    2.7383
   11.355    2.8120
   11.490    2.6330
   11.625    2.5382
   11.760    2.5276
   11.895    2.6856
   12.030    2.7593
   12.165    2.8541
   12.300    2.4750
   12.435    2.6540
   12.570    2.4539
   12.705    2.7699
   12.840    2.5803
   12.975    2.5066
   13.110    2.6014
   13.245    2.5171
   13.380    2.5698
   13.515    2.5276
   13.650    2.5066
   13.785    2.6646
   13.920    2.5276
   14.055    2.2854
   14.190    2.7909
   14.325    2.5171
   14.460    2.3591
   14.595    2.4750
   14.730    2.8963
   14.865    2.3907
   15.000    2.6751
   15.135    2.6014
   15.270    2.3486
   15.405    2.5908
   15.540    2.5066
   15.675    2.5066
   15.810    2.5171
   15.945    2.8015
   16.080    2.5066
   16.215    2.6119
   16.350    2.6646
   16.485    2.4855
   16.620    2.3697
   16.755    2.7699
   16.890    2.6119
   17.025    2.6119
   17.160    2.5698
   17.295    2.4750
   17.430    2.7172
   17.565    2.7383
   17.700    2.5487
   17.835    2.6435
   17.970    2.8015
   18.105    2.6540
   18.240    2.9489
   18.375    2.3697
   18.510    2.6435
   18.645    2.4118
   18.780    2.8015
   18.915    2.6646
   19.050    2.4434
   19.185    2.7067
   19.320    2.6330
   19.455    2.6224
   19.590    2.6330
   19.725    2.6751
   19.860    2.8752
   19.995    2.6014
   20.130    2.6224
   20.265    2.7804
   20.400    2.7909
   20.535    2.5908
   20.670    2.4434
   20.805    2.5487
   20.940    2.7383
   21.075    2.8225
   21.210    2.4961
   21.345    2.8225
   21.480    2.7488
   21.615    2.7909
   21.750    2.7383
   21.885    2.6435
   22.020    2.5592
   22.155    2.3907
   22.290    2.6646
   22.425    2.6646
   22.560    2.7172
   22.695    2.6119
   22.830    2.3591
   22.965    2.7383
   23.100    2.4118
   23.235    2.6224
   23.370    2.5382
   23.505    2.6751
   23.640    2.5908
   23.775    2.3697
   23.910    2.6646
   24.045    2.5908
   24.180    2.2643
   24.315    2.5276
   24.450    2.5698
   24.585    2.5066
   24.720    2.6014
   24.855    2.4750
   24.990    2.5382
   25.125    2.4434
   25.260    2.5908
   25.395    2.4223
   25.530    2.4750
   25.665    2.5066
   25.800    2.4961
   25.935    2.2538
   26.070    2.4434
   26.205    2.3802
   26.340    2.2854
   26.475    2.3486
   26.610    2.1485
   26.745    2.4750
   26.880    2.5276
   27.015    2.3381
   27.150    2.4118
   27.285    2.1380
   27.420    2.5171
   27.555    2.2854
   27.690    2.2328
   27.825    2.4434
   27.960    2.3907
   28.095    2.2222
   28.230    2.2643
   28.365    2.2328
   28.500    2.1906
   28.635    2.0642
   28.770    2.0853
   28.905    1.9905
   29.040    2.1485
   29.175    2.1485
   29.310    2.0642
   29.445    2.0326
   29.580    2.2854
   29.715    2.0432
   29.850    2.1064
   29.985    2.0958
   30.120    2.2117
   30.255    2.0958
   30.390    1.7694
   30.525    2.0432
   30.660    1.9589
   30.795    2.0958
   30.930    1.7272
   31.065    2.0853
   31.200    1.9695
   31.335    2.0642
   31.470    2.0642
   31.605    1.9379
   31.740    2.1801
   31.875    1.8325
   32.010    2.0011
   32.145    1.9379
   32.280    2.0432
   32.415    1.9273
   32.550    1.7904
   32.685    1.8115
   32.820    1.8325
   32.955    1.7799
   33.090    1.7378
   33.225    1.9379
   33.360    1.7378
   33.495    1.5587
   33.630    1.8009
   33.765    1.7588
   33.900    1.7272
   34.035    1.7694
   34.170    1.6956
   34.305    1.8009
   34.440    1.7588
   34.575    1.8431
   34.710    1.5377
   34.845    1.6324
   34.980    1.6640
   35.115    1.7904
   35.250    1.5377
   35.385    1.7062
   35.520    1.7062
   35.655    1.5903
   35.790    1.5271
   35.925    1.7062
   36.060    1.6114
   36.195    1.5587
   36.330    1.6008
   36.465    1.7062
   36.600    1.4850
   36.735    1.5692
   36.870    1.5482
   37.005    1.4639
   37.140    1.6114
   37.275    1.6640
   37.410    1.6956
   37.545    1.5377
   37.680    1.6430
   37.815    1.5482
   37.950    1.5271
   38.085    1.6851
   38.220    1.4955
   38.355    1.4429
   38.490    1.6535
   38.625    1.6430
   38.760    1.5798
   38.895    1.4850
   39.030    1.4955
   39.165    1.5166
   39.300    1.5271
   39.435    1.2954
   39.570    1.4429
   39.705    1.5377
   39.840    1.5482
   39.975    1.4218
   39.990    1.4955