File: data/MOCOF-1/PXRD/PXRD_KE-174b_Cu-Ka1_capillary-1mm_5s-deg.xyd
    1.500   25.4976
    1.545   26.4982
    1.590   25.6030
    1.635   24.2759
    1.680   24.1811
    1.725   23.6440
    1.770   22.7909
    1.815   21.9695
    1.860   21.2006
    1.905   21.1796
    1.950   20.2949
    1.995   20.4634
    2.040   20.4739
    2.085   20.3054
    2.130   20.4107
    2.175   20.5161
    2.220   20.9900
    2.265   20.5055
    2.310   20.1790
    2.355   20.8636
    2.400   20.9479
    2.445   22.4750
    2.490   22.5171
    2.535   23.7177
    2.580   24.3181
    2.625   25.1290
    2.670   26.5613
    2.715   27.5408
    2.760   28.5940
    2.805   30.8583
    2.850   33.1438
    2.895   35.2817
    2.940   37.0616
    2.985   40.4002
    3.030   44.7920
    3.075   48.2991
    3.120   54.1338
    3.165   58.3992
    3.210   65.3607
    3.255   75.5766
    3.300   85.9505
    3.345  101.1480
    3.390  119.0943
    3.435  139.5366
    3.480  142.3170
    3.525  114.8289
    3.570   80.6424
    3.615   60.6635
    3.660   53.2807
    3.705   50.7320
    3.750   52.5224
    3.795   52.9121
    3.840   56.6509
    3.885   56.2401
    3.930   57.1775
    3.975   57.8410
    4.020   55.0711
    4.065   50.7846
    4.110   47.0037
    4.155   41.7799
    4.200   36.1032
    4.245   30.5740
    4.290   26.1401
    4.335   22.3802
    4.380   19.4418
    4.425   16.7141
    4.470   14.8499
    4.515   12.8067
    4.560   12.1643
    4.605   11.1954
    4.650   10.2686
    4.695   10.3633
    4.740    9.8052
    4.785    9.3102
    4.830    9.2575
    4.875    8.5729
    4.920    8.1095
    4.965    8.1201
    5.010    7.9726
    5.055    7.8989
    5.100    8.1938
    5.145    7.3302
    5.190    7.2249
    5.235    7.6251
    5.280    7.4144
    5.325    7.0037
    5.370    7.1406
    5.415    7.0248
    5.460    6.9089
    5.505    6.7825
    5.550    6.8246
    5.595    6.6983
    5.640    6.4139
    5.685    6.5403
    5.730    6.7930
    5.775    6.7825
    5.820    6.2665
    5.865    6.3718
    5.910    6.4034
    5.955    6.6772
    6.000    6.5929
    6.045    6.8773
    6.090    6.6035
    6.135    6.6140
    6.180    6.2559
    6.225    6.3402
    6.270    6.6140
    6.315    6.7088
    6.360    6.6456
    6.405    7.3407
    6.450    7.3512
    6.495    7.6356
    6.540    7.9831
    6.585    8.0042
    6.630    8.7309
    6.675    8.9521
    6.720    9.9210
    6.765   11.0163
    6.810   12.2275
    6.855   13.5966
    6.900   16.0190
    6.945   18.1148
    6.990   17.9674
    7.035   14.7130
    7.080   11.4903
    7.125    9.8157
    7.170    8.7414
    7.215    8.4150
    7.260    8.1306
    7.305    7.9726
    7.350    7.6461
    7.395    7.4460
    7.440    7.2143
    7.485    7.8252
    7.530    7.9621
    7.575    7.8884
    7.620    8.2043
    7.665    7.9410
    7.710    8.7414
    7.755    8.4676
    7.800    9.3418
    7.845    9.3523
    7.890    9.7841
    7.935    9.7104
    7.980    9.9210
    8.025    9.9947
    8.070    9.9842
    8.115    9.5419
    8.160   10.1316
    8.205   10.0158
    8.250    9.5103
    8.295    9.2259
    8.340    9.0785
    8.385    9.0047
    8.430    8.8573
    8.475    8.3834
    8.520    8.4676
    8.565    7.9621
    8.610    7.7093
    8.655    7.3512
    8.700    7.4250
    8.745    7.4039
    8.790    6.8878
    8.835    6.7509
    8.880    6.8878
    8.925    6.7088
    8.970    6.6245
    9.015    6.5192
    9.060    6.5824
    9.105    6.4876
    9.150    6.3191
    9.195    6.1190
    9.240    6.1190
    9.285    6.3823
    9.330    6.0979
    9.375    6.1085
    9.420    5.6977
    9.465    6.2770
    9.510    6.0979
    9.555    6.2349
    9.600    5.9294
    9.645    6.1085
    9.690    6.5613
    9.735    5.8136
    9.780    5.9400
    9.825    5.9926
    9.870    6.3823
    9.915    6.0558
    9.960    5.8136
   10.005    6.1927
   10.050    6.2243
   10.095    5.9821
   10.140    6.2243
   10.185    6.1295
   10.230    5.9189
   10.275    6.2981
   10.320    6.6035
   10.365    6.6667
   10.410    6.8773
   10.455    6.4876
   10.500    6.9300
   10.545    6.8352
   10.590    6.0242
   10.635    6.0769
   10.680    6.3402
   10.725    6.4350
   10.770    6.0874
   10.815    6.0874
   10.860    6.0032
   10.905    6.1295
   10.950    6.1717
   10.995    5.7715
   11.040    6.0979
   11.085    5.7820
   11.130    6.1611
   11.175    6.2033
   11.220    5.8031
   11.265    5.7083
   11.310    6.1611
   11.355    5.9084
   11.400    6.1822
   11.445    5.8031
   11.490    5.8136
   11.535    5.7293
   11.580    6.3191
   11.625    5.9716
   11.670    6.0453
   11.715    7.0142
   11.760    5.9926
   11.805    6.1295
   11.850    6.3296
   11.895    6.2349
   11.940    6.3296
   11.985    6.3296
   12.030    6.3086
   12.075    6.3296
   12.120    6.6140
   12.165    6.3823
   12.210    6.5929
   12.255    6.3823
   12.300    6.6351
   12.345    6.2770
   12.390    6.2665
   12.435    6.3507
   12.480    6.5298
   12.525    6.3086
   12.570    6.5508
   12.615    6.5192
   12.660    6.1190
   12.705    6.3823
   12.750    6.2138
   12.795    6.1717
   12.840    6.1611
   12.885    6.1295
   12.930    6.4771
   12.975    6.3086
   13.020    6.1927
   13.065    6.4560
   13.110    6.2981
   13.155    6.2349
   13.200    5.9610
   13.245    6.1717
   13.290    6.5929
   13.335    6.1822
   13.380    6.2770
   13.425    6.2454
   13.470    6.3612
   13.515    6.1611
   13.560    6.2875
   13.605    6.2243
   13.650    5.9505
   13.695    5.6556
   13.740    6.0453
   13.785    6.2875
   13.830    6.1085
   13.875    6.3402
   13.920    6.1822
   13.965    6.4771
   14.010    6.0769
   14.055    5.9926
   14.100    5.8978
   14.145    6.0137
   14.190    5.9084
   14.235    6.0558
   14.280    5.8347
   14.325    5.8241
   14.370    5.7293
   14.415    5.7925
   14.460    5.9400
   14.505    5.7820
   14.550    5.8241
   14.595    5.9400
   14.640    5.7293
   14.685    5.9610
   14.730    5.8768
   14.775    6.1295
   14.820    5.8241
   14.865    5.9084
   14.910    5.5924
   14.955    5.9084
   14.985    6.1927