File: data/MOCOF-1/PXRD/PXRD_KE-193_Cu-Ka1_capillary-1mm_5s-deg.xyd
    1.500   16.4824
    1.635   15.0922
    1.770   13.0384
    1.905   12.1643
    2.040   11.3112
    2.175    9.7420
    2.310    9.8894
    2.445    9.1101
    2.580    8.7730
    2.715    8.4571
    2.850    8.5519
    2.985    9.2575
    3.120   11.1532
    3.255   14.7130
    3.390   23.6230
    3.525   40.1790
    3.660   77.8515
    3.795  196.8931
    3.930   69.0890
    4.065    7.1933
    4.200    5.9610
    4.335    5.4450
    4.470    5.0764
    4.605    4.8657
    4.740    5.2133
    4.875    4.8447
    5.010    5.6556
    5.145    7.5829
    5.280   12.3012
    5.415   31.9221
    5.550   19.3576
    5.685    4.9500
    5.820    4.4128
    5.955    4.5076
    6.090    4.3813
    6.225    4.3707
    6.360    4.2549
    6.495    4.6656
    6.630    5.7083
    6.765    8.3834
    6.900    4.4655
    7.035    4.2970
    7.170    4.2549
    7.305    3.8547
    7.440    4.5498
    7.575    5.4239
    7.710   11.1638
    7.845   10.1001
    7.980    4.0758
    8.115    4.1074
    8.250    4.0758
    8.385    4.1180
    8.520    3.9389
    8.655    5.4450
    8.790    4.1601
    8.925    3.9494
    9.060    4.0653
    9.195    4.0232
    9.330    4.8868
    9.465   10.7109
    9.600   15.4081
    9.735    4.0021
    9.870    3.6440
   10.005    3.5808
   10.140    4.1074
   10.275    9.0890
   10.410    4.5603
   10.545    3.5703
   10.680    3.6651
   10.815    3.6335
   10.950    5.7820
   11.085    8.7098
   11.220    3.5914
   11.355    3.6230
   11.490    3.6862
   11.625    6.0453
   11.760   10.0158
   11.895    3.8441
   12.030    3.7915
   12.165    3.6019
   12.300    4.4971
   12.435    3.8125
   12.570    3.3070
   12.705    3.3070
   12.840    4.4023
   12.975    8.2043
   13.110    3.8020
   13.245    3.5387
   13.380    3.6651
   13.515    5.5608
   13.650    3.4966
   13.785    3.3807
   13.920    3.6546
   14.055    6.2559
   14.190    4.2127
   14.325    3.2333
   14.460    3.3807
   14.595    3.4123
   14.730    3.4018
   14.865    3.6335
   15.000    3.5808
   15.135    4.9184
   15.270    3.4123
   15.405    3.4966
   15.540    3.3807
   15.675    3.3175
   15.810    3.5914
   15.945    3.2754
   16.080    4.1285
   16.215    4.3286
   16.350    3.4439
   16.485    3.3597
   16.620    5.3081
   16.755    3.6230
   16.890    3.6124
   17.025    5.1711
   17.160    4.9816
   17.295    3.4439
   17.430    3.5176
   17.565    3.7599
   17.700    3.4860
   17.835    3.3807
   17.970    4.1706
   18.105    3.3807
   18.240    3.2649
   18.375    4.0548
   18.510    3.5071
   18.645    3.2965
   18.780    3.8863
   18.915    3.6862
   19.050    3.3702
   19.185    3.0542
   19.320    3.2543
   19.455    3.6440
   19.590    4.9289
   19.725    3.7388
   19.860    3.2543
   19.995    3.8125
   20.130    3.3175
   20.265    3.4966
   20.400    6.8246
   20.535    3.6440
   20.670    3.3175
   20.805    3.4966
   20.940    3.0542
   21.075    3.3491
   21.210    3.4018
   21.345    3.2754
   21.480    3.4229
   21.615    3.4650
   21.750    3.5703
   21.885    5.0553
   22.020    3.7599
   22.155    3.5071
   22.290    3.7072
   22.425    3.4334
   22.560    6.0032
   22.695    4.2233
   22.830    3.8757
   22.965    7.4776
   23.100    3.4544
   23.235    4.2654
   23.370    3.7809
   23.505    3.4966
   23.640    3.6335
   23.775    3.4544
   23.910    4.5498
   24.045    3.6546
   24.180    3.8547
   24.315    3.4229
   24.450    3.5914
   24.585    3.6756
   24.720    3.4439
   24.855    3.4439
   24.990    3.6019
   25.125    3.3913
   25.260    3.9600
   25.395    3.3175
   25.530    3.3281
   25.665    3.4860
   25.800    4.5498
   25.935    4.7499
   26.070    3.3175
   26.205    3.5808
   26.340    3.0753
   26.475    4.3813
   26.610    3.3702
   26.745    3.2333
   26.880    3.3281
   27.015    4.1601
   27.150    3.8757
   27.285    3.2333
   27.420    3.4544
   27.555    3.3807
   27.690    3.6230
   27.825    3.3175
   27.960    4.0337
   28.095    3.3175
   28.230    4.2970
   28.365    3.6967
   28.500    4.3181
   28.635    3.3702
   28.770    3.2649
   28.905    3.0542
   29.040    3.6967
   29.175    3.2017
   29.310    3.8968
   29.445    3.0437
   29.580    3.2965
   29.715    3.3175
   29.850    3.4544
   29.985    3.6335
   30.120    3.5282
   30.255    3.1806
   30.390    3.6124
   30.525    3.2227
   30.660    3.8757
   30.795    3.2227
   30.930    3.4018
   31.065    2.8541
   31.200    2.9384
   31.335    3.1280
   31.470    3.1174
   31.605    3.0437
   31.740    3.1806
   31.875    3.0753
   32.010    2.9595
   32.145    3.1069
   32.280    3.0648
   32.415    3.0542
   32.550    3.1912
   32.685    3.0858
   32.820    3.0858
   32.955    3.3702
   33.090    2.7699
   33.225    2.8541
   33.360    2.7067
   33.495    3.1174
   33.630    2.6962
   33.765    3.0542
   33.900    3.4229
   34.035    3.2227
   34.170    3.1069
   34.305    2.8752
   34.440    2.7593
   34.575    2.9384
   34.710    3.0437
   34.845    2.9173
   34.980    2.8436
   35.115    2.7593
   35.250    2.7593
   35.385    2.7593
   35.520    2.8541
   35.655    2.7909
   35.790    2.8857
   35.925    2.9173
   36.060    3.0121
   36.195    2.7488
   36.330    2.6224
   36.465    2.8541
   36.600    2.7067
   36.735    3.1490
   36.870    2.7172
   37.005    2.8752
   37.140    3.1069
   37.275    2.8752
   37.410    2.9068
   37.545    2.7172
   37.680    2.6119
   37.815    2.8857
   37.950    2.7488
   38.085    2.4645
   38.220    2.6014
   38.355    2.7909
   38.490    2.9489
   38.625    2.5066
   38.760    2.7488
   38.895    2.8331
   39.030    2.7909
   39.165    2.7804
   39.300    2.8647
   39.435    2.9384
   39.570    2.7593
   39.705    2.8752
   39.840    2.8752
   39.975    2.8120
   39.990    2.8541