File: data/MOCOF-1/PXRD/PXRD_KE-027_Cu-Ka1_capillary-1mm_5s-deg.xyd
    1.500   23.2543
    1.635   21.7062
    1.770   20.1474
    1.905   19.3576
    2.040   17.9252
    2.175   17.9252
    2.310   17.7041
    2.445   17.3670
    2.580   17.2722
    2.715   19.9157
    2.850   21.4323
    2.985   23.5387
    3.120   27.0774
    3.255   33.6493
    3.390   43.6230
    3.525   55.1448
    3.660   58.4729
    3.795   46.5614
    3.930   34.3549
    4.065   25.0764
    4.200   20.0105
    4.335   17.4829
    4.470   15.5661
    4.605   14.9447
    4.740   13.6598
    4.875   14.5866
    5.010   12.9437
    5.145   13.4492
    5.280   13.3333
    5.415   12.7646
    5.550   12.8067
    5.685   12.1222
    5.820   11.3955
    5.955    9.6472
    6.090    8.9942
    6.225    9.5419
    6.360    9.1101
    6.495    8.5835
    6.630    9.1732
    6.765    8.9521
    6.900    9.7209
    7.035   10.4897
    7.170   10.7636
    7.305   11.0585
    7.440   10.6793
    7.575    9.5208
    7.710    8.1095
    7.845    7.0879
    7.980    7.4144
    8.115    6.7299
    8.250    6.2875
    8.385    6.0558
    8.520    6.0453
    8.655    5.9400
    8.790    5.9821
    8.925    5.3923
    9.060    5.3186
    9.195    5.8978
    9.330    5.4555
    9.465    4.9605
    9.600    5.1185
    9.735    5.2554
    9.870    5.4450
   10.005    4.7709
   10.140    4.8236
   10.275    5.3712
   10.410    4.9078
   10.545    5.3397
   10.680    5.1711
   10.815    5.2027
   10.950    5.2659
   11.085    5.2133
   11.220    4.9394
   11.355    4.9921
   11.490    5.4239
   11.625    4.8868
   11.760    4.9921
   11.895    4.9289
   12.030    5.0658
   12.165    5.0026
   12.300    5.3923
   12.435    4.8236
   12.570    5.0342
   12.705    5.2975
   12.840    4.9289
   12.975    5.0342
   13.110    5.1395
   13.245    4.9394
   13.380    4.6656
   13.515    4.7499
   13.650    4.8447
   13.785    4.8131
   13.920    4.9816
   14.055    5.2765
   14.190    4.9921
   14.325    5.2554
   14.460    5.1501
   14.595    5.0026
   14.730    4.9816
   14.865    4.5603
   15.000    4.8973
   15.135    5.0764
   15.270    5.2027
   15.405    5.1606
   15.540    4.7077
   15.675    4.8447
   15.810    5.1606
   15.945    4.9921
   16.080    5.2133
   16.215    5.0026
   16.350    5.1817
   16.485    5.2554
   16.620    5.2343
   16.755    5.1395
   16.890    5.4239
   17.025    4.9184
   17.160    5.5503
   17.295    5.2343
   17.430    5.2870
   17.565    5.7293
   17.700    5.6556
   17.835    5.9400
   17.970    6.3296
   18.105    5.9189
   18.240    6.3507
   18.375    5.9505
   18.510    6.2138
   18.645    6.2981
   18.780    6.3612
   18.915    6.5613
   19.050    6.3718
   19.185    6.2138
   19.320    6.4244
   19.455    6.1295
   19.590    6.1927
   19.725    5.8452
   19.860    6.2559
   19.995    6.0137
   20.130    5.9084
   20.265    5.8662
   20.400    6.0769
   20.535    5.8873
   20.670    5.5398
   20.805    5.9189
   20.940    6.0874
   21.075    5.7504
   21.210    5.9821
   21.345    6.0242
   21.480    6.4034
   21.615    5.8557
   21.750    6.2243
   21.885    6.1190
   22.020    6.3823
   22.155    5.7715
   22.290    6.0664
   22.425    6.0558
   22.560    5.8452
   22.695    5.8768
   22.830    6.0032
   22.965    5.9821
   23.100    5.5503
   23.235    5.5082
   23.370    5.8347
   23.505    5.6345
   23.640    5.6240
   23.775    5.4871
   23.910    5.3291
   24.045    5.4766
   24.180    5.5187
   24.315    5.0869
   24.450    5.3502
   24.585    4.9394
   24.720    4.8763
   24.855    5.4976
   24.990    4.8973
   25.125    4.8868
   25.260    4.9816
   25.395    4.8973
   25.530    4.7183
   25.665    4.6445
   25.800    4.8236
   25.935    4.9710
   26.070    4.5392
   26.205    4.4655
   26.340    4.6551
   26.475    4.2654
   26.610    4.2759
   26.745    4.2759
   26.880    3.9494
   27.015    4.1496
   27.150    4.0442
   27.285    4.1706
   27.420    4.1285
   27.555    3.9389
   27.690    3.8863
   27.825    3.7704
   27.960    3.8125
   28.095    3.8547
   28.230    3.8441
   28.365    3.6756
   28.500    3.3913
   28.635    3.8125
   28.770    3.8231
   28.905    3.7493
   29.040    3.3807
   29.175    3.6124
   29.310    3.4650
   29.445    3.3597
   29.580    3.4966
   29.715    3.3386
   29.850    3.4755
   29.985    3.3175
   30.120    3.2438
   30.255    2.9384
   30.390    3.3597
   30.525    3.0542
   30.660    3.1806
   30.795    3.3070
   30.930    3.0648
   31.065    3.0858
   31.200    3.1596
   31.335    3.0437
   31.470    2.8647
   31.605    3.2122
   31.740    3.2649
   31.875    3.1596
   32.010    2.9068
   32.145    2.7488
   32.280    2.6224
   32.415    2.9279
   32.550    2.6119
   32.685    3.0016
   32.820    2.6540
   32.955    2.5382
   33.090    2.6646
   33.225    2.5592
   33.360    2.5382
   33.495    2.6224
   33.630    2.3907
   33.765    2.4961
   33.900    2.4855
   34.035    2.3591
   34.170    2.3486
   34.305    2.7067
   34.440    2.2749
   34.575    2.4434
   34.710    2.2012
   34.845    2.1906
   34.980    2.1801
   35.115    2.0958
   35.250    2.4223
   35.385    2.2117
   35.520    2.0432
   35.655    2.1906
   35.790    1.9168
   35.925    2.1274
   36.060    2.1169
   36.195    1.9379
   36.330    2.0748
   36.465    2.0642
   36.600    2.0537
   36.735    1.9484
   36.870    2.1274
   37.005    2.0221
   37.140    1.9800
   37.275    1.8641
   37.410    1.8641
   37.545    1.6008
   37.680    1.9273
   37.815    1.9589
   37.950    1.9484
   38.085    1.8641
   38.220    1.9168
   38.355    2.0116
   38.490    1.7378
   38.625    1.9168
   38.760    1.6851
   38.895    1.9589
   39.030    2.0011
   39.165    1.7062
   39.300    2.1169
   39.435    1.7904
   39.570    1.6535
   39.705    1.8325
   39.840    1.9905
   39.975    1.9273
   39.990    1.8536