File: data/MOCOF-1/PXRD/PXRD_Blank_Cu-Ka1_nothing_5s-deg.xyd
    1.500    2.1274
    1.635    2.1696
    1.770    2.6751
    1.905    2.5276
    2.040    2.7593
    2.175    3.0121
    2.310    2.9595
    2.445    2.9700
    2.580    3.2438
    2.715    3.3913
    2.850    3.1806
    2.985    3.4439
    3.120    3.3597
    3.255    3.5282
    3.390    3.5071
    3.525    3.3913
    3.660    3.4860
    3.795    3.4755
    3.930    3.6019
    4.065    3.6124
    4.200    3.8125
    4.335    3.7915
    4.470    3.3597
    4.605    3.4229
    4.740    3.8336
    4.875    3.6124
    5.010    3.4018
    5.145    3.5071
    5.280    3.5808
    5.415    3.6335
    5.550    3.8968
    5.685    3.3386
    5.820    3.9073
    5.955    3.6230
    6.090    3.8336
    6.225    3.9600
    6.360    4.0653
    6.495    3.7704
    6.630    3.8125
    6.765    3.8336
    6.900    3.9073
    7.035    3.6756
    7.170    3.5387
    7.305    3.7177
    7.440    3.5282
    7.575    4.1390
    7.710    3.5387
    7.845    3.6019
    7.980    3.8020
    8.115    3.6967
    8.250    3.7493
    8.385    3.9389
    8.520    3.8231
    8.655    3.4229
    8.790    3.6756
    8.925    3.6651
    9.060    3.6124
    9.195    3.4966
    9.330    3.5492
    9.465    3.6756
    9.600    3.5703
    9.735    3.6546
    9.870    3.3597
   10.005    3.4755
   10.140    3.3281
   10.275    3.5598
   10.410    3.3597
   10.545    3.2122
   10.680    3.3070
   10.815    3.4018
   10.950    3.1806
   11.085    3.0753
   11.220    3.4018
   11.355    3.3175
   11.490    3.1280
   11.625    3.1174
   11.760    3.4860
   11.895    3.3491
   12.030    3.2649
   12.165    3.1069
   12.300    3.3913
   12.435    3.4229
   12.570    2.8963
   12.705    2.8015
   12.840    3.2649
   12.975    2.8436
   13.110    2.8963
   13.245    2.8436
   13.380    3.0437
   13.515    3.1069
   13.650    3.0648
   13.785    2.9384
   13.920    3.1174
   14.055    2.8331
   14.190    3.0016
   14.325    2.8541
   14.460    2.9173
   14.595    2.9805
   14.730    2.7172
   14.865    2.6962
   15.000    2.7172
   15.135    2.9279
   15.270    2.8857
   15.405    2.6330
   15.540    2.8436
   15.675    2.5698
   15.810    2.6119
   15.945    2.8436
   16.080    2.5171
   16.215    2.9068
   16.350    2.8120
   16.485    2.5066
   16.620    2.3591
   16.755    2.4645
   16.890    2.5803
   17.025    2.5276
   17.160    2.5487
   17.295    2.5487
   17.430    2.4329
   17.565    2.3802
   17.700    2.5276
   17.835    2.5171
   17.970    2.4961
   18.105    2.5066
   18.240    2.5066
   18.375    2.3591
   18.510    2.3802
   18.645    2.3275
   18.780    2.0748
   18.915    2.2749
   19.050    2.4329
   19.185    2.2433
   19.320    2.3486
   19.455    2.2117
   19.590    2.3065
   19.725    1.7694
   19.860    2.1696
   19.995    2.0116
   20.130    2.0642
   20.265    2.1590
   20.400    2.2222
   20.535    2.2222
   20.670    2.1485
   20.805    2.0221
   20.940    1.9695
   21.075    2.0011
   21.210    1.8115
   21.345    1.9800
   21.480    1.8220
   21.615    1.8957
   21.750    1.7272
   21.885    1.9905
   22.020    1.8852
   22.155    1.7694
   22.290    1.9273
   22.425    1.9695
   22.560    1.6430
   22.695    1.9695
   22.830    1.7272
   22.965    1.7378
   23.100    1.7483
   23.235    1.7272
   23.370    1.6219
   23.505    1.6219
   23.640    1.6746
   23.775    1.8325
   23.910    1.7272
   24.045    1.6219
   24.180    1.6430
   24.315    1.5061
   24.450    1.4639
   24.585    1.5482
   24.720    1.5798
   24.855    1.7167
   24.990    1.7799
   25.125    1.2744
   25.260    1.5377
   25.395    1.5166
   25.530    1.4850
   25.665    1.2744
   25.800    1.6008
   25.935    1.4850
   26.070    1.3586
   26.205    1.3797
   26.340    1.3902
   26.475    1.2849
   26.610    1.3375
   26.745    1.4007
   26.880    1.5271
   27.015    1.2322
   27.150    1.3691
   27.285    1.4429
   27.420    1.2744
   27.555    1.2322
   27.690    1.2849
   27.825    1.1480
   27.960    1.1901
   28.095    1.2217
   28.230    1.1901
   28.365    1.1058
   28.500    1.2533
   28.635    1.0742
   28.770    1.2638
   28.905    0.9373
   29.040    1.1901
   29.175    0.9900
   29.310    1.2112
   29.445    1.1585
   29.580    1.0742
   29.715    1.2006
   29.850    1.1164
   29.985    0.9268
   30.120    1.0532
   30.255    1.0111
   30.390    1.1374
   30.525    1.0111
   30.660    1.0742
   30.795    1.0742
   30.930    0.8847
   31.065    0.9373
   31.200    0.8952
   31.335    1.0216
   31.470    1.0742
   31.605    0.9268
   31.740    0.8847
   31.875    0.9268
   32.010    1.0111
   32.145    0.8636
   32.280    0.9900
   32.415    0.8952
   32.550    0.8320
   32.685    0.9795
   32.820    0.8847
   32.955    0.8004
   33.090    0.8741
   33.225    0.7899
   33.360    0.8636
   33.495    0.7583
   33.630    0.7688
   33.765    0.8425
   33.900    0.9163
   34.035    0.8741
   34.170    0.8320
   34.305    0.7478
   34.440    0.9689
   34.575    0.6530
   34.710    0.8004
   34.845    0.7478
   34.980    0.7267
   35.115    0.8004
   35.250    0.7794
   35.385    0.7478
   35.520    0.7267
   35.655    0.7583
   35.790    0.7583
   35.925    0.8425
   36.060    0.8110
   36.195    0.8215
   36.330    0.7688
   36.465    0.7056
   36.600    0.6530
   36.735    0.7478
   36.870    0.6846
   37.005    0.6846
   37.140    0.6214
   37.275    0.4845
   37.410    0.6108
   37.545    0.5687
   37.680    0.7056
   37.815    0.5266
   37.950    0.6108
   38.085    0.5687
   38.220    0.6108
   38.355    0.5898
   38.490    0.5687
   38.625    0.5371
   38.760    0.7267
   38.895    0.6214
   39.030    0.5582
   39.165    0.6108
   39.300    0.5582
   39.435    0.6108
   39.570    0.5266
   39.705    0.5161
   39.840    0.6530
   39.975    0.5266
   39.990    0.4318