File: data/MOCOF-1/PXRD/PXRD_KE-343_Cu-Ka1_film-3mm_3s-deg_1.5-80deg_CuOAc2-DABA.xyd
    1.500    8.7063
    1.770    6.3893
    2.040    4.2478
    2.310    3.5106
    2.580    3.2298
    2.850    2.7032
    3.120    2.0713
    3.390    2.3697
    3.660    2.4574
    3.930    1.9484
    4.200    2.4925
    4.470    2.0362
    4.740    2.2819
    5.010    2.4399
    5.280    2.8612
    5.550    2.5628
    5.820    2.3521
    6.090    2.0537
    6.360    2.1941
    6.630    1.9835
    6.900    1.7904
    7.170    1.7553
    7.440    1.5271
    7.710    1.4920
    7.980    1.7027
    8.250    1.3165
    8.520    1.2463
    8.790    1.3340
    9.060    1.2638
    9.330    1.4042
    9.600    1.3516
    9.870    1.2287
   10.140    1.5798
   10.410    1.3340
   10.680    1.4042
   10.950    1.5271
   11.220    1.3867
   11.490    1.5447
   11.760    1.3867
   12.030    1.4218
   12.300    1.2112
   12.570    1.3340
   12.840    1.3165
   13.110    1.4394
   13.380    1.2989
   13.650    1.1234
   13.920    1.3867
   14.190    1.4745
   14.460    1.5798
   14.730    1.3867
   15.000    1.4569
   15.270    1.4394
   15.540    1.0707
   15.810    1.3340
   16.080    1.1585
   16.350    1.0883
   16.620    1.1761
   16.890    1.3867
   17.160    1.3165
   17.430    1.3340
   17.700    1.2287
   17.970    1.1058
   18.240    1.1234
   18.510    1.2463
   18.780    1.1936
   19.050    1.3516
   19.320    1.1761
   19.590    1.0181
   19.860    1.1936
   20.130    1.2814
   20.400    1.1058
   20.670    1.1058
   20.940    1.1936
   21.210    1.4920
   21.480    1.1936
   21.750    1.0532
   22.020    1.1585
   22.290    1.2638
   22.560    0.9128
   22.830    0.8777
   23.100    1.0356
   23.370    1.1585
   23.640    1.1058
   23.910    0.9830
   24.180    1.1585
   24.450    0.9128
   24.720    1.0181
   24.990    1.0707
   25.260    1.2638
   25.530    1.0707
   25.800    1.0707
   26.070    0.9479
   26.340    1.0356
   26.610    1.0707
   26.880    0.8777
   27.150    0.7372
   27.420    0.7372
   27.690    0.7899
   27.960    0.9128
   28.230    0.8601
   28.500    0.8777
   28.770    0.7899
   29.040    0.8601
   29.310    0.7548
   29.580    0.8952
   29.850    0.8074
   30.120    0.6319
   30.390    0.5793
   30.660    0.7548
   30.930    0.5617
   31.200    0.6846
   31.470    0.5793
   31.740    0.7021
   32.010    0.5617
   32.280    0.6670
   32.550    0.5968
   32.820    0.5793
   33.090    0.5266
   33.360    0.6319
   33.630    0.5968
   33.900    0.5617
   34.170    0.5090
   34.440    0.4915
   34.710    0.4213
   34.980    0.3862
   35.250    0.6670
   35.520    0.4739
   35.790    0.4388
   36.060    0.5793
   36.330    0.4739
   36.600    0.4564
   36.870    0.5266
   37.140    0.5090
   37.410    0.4915
   37.680    0.3511
   37.950    0.5793
   38.220    0.4213
   38.490    0.3686
   38.760    0.4388
   39.030    0.4213
   39.300    0.3862
   39.570    0.4213
   39.840    0.4213
   40.110    0.5266
   40.380    0.5793
   40.650    0.4915
   40.920    0.5441
   41.190    0.4037
   41.460    0.4739
   41.730    0.5441
   42.000    0.4388
   42.270    0.4213
   42.540    0.4739
   42.810    0.5090
   43.080    0.4037
   43.350    0.4739
   43.620    0.4213
   43.890    0.4564
   44.160    0.4037
   44.430    0.3686
   44.700    0.4564
   44.970    0.3686
   45.240    0.3511
   45.510    0.5090
   45.780    0.3511
   46.050    0.4388
   46.320    0.4037
   46.590    0.2633
   46.860    0.3511
   47.130    0.2984
   47.400    0.4213
   47.670    0.4564
   47.940    0.4037
   48.210    0.3511
   48.480    0.4213
   48.750    0.4213
   49.020    0.3686
   49.290    0.3160
   49.560    0.4213
   49.830    0.3686
   50.100    0.2984
   50.370    0.3160
   50.640    0.3686
   50.910    0.3511
   51.180    0.4037
   51.450    0.3160
   51.720    0.2457
   51.990    0.2808
   52.260    0.3862
   52.530    0.3160
   52.800    0.3335
   53.070    0.4388
   53.340    0.4213
   53.610    0.3511
   53.880    0.2633
   54.150    0.3335
   54.420    0.4213
   54.690    0.4037
   54.960    0.3160
   55.230    0.2633
   55.500    0.3511
   55.770    0.3335
   56.040    0.3335
   56.310    0.3511
   56.580    0.2633
   56.850    0.3335
   57.120    0.3335
   57.390    0.2808
   57.660    0.3511
   57.930    0.2808
   58.200    0.3686
   58.470    0.3160
   58.740    0.2984
   59.010    0.2808
   59.280    0.2633
   59.550    0.3160
   59.820    0.2106
   60.090    0.4037
   60.360    0.3335
   60.630    0.3511
   60.900    0.2457
   61.170    0.2984
   61.440    0.2984
   61.710    0.3862
   61.980    0.2106
   62.250    0.2984
   62.520    0.2106
   62.790    0.2106
   63.060    0.3862
   63.330    0.4213
   63.600    0.3335
   63.870    0.1755
   64.140    0.3335
   64.410    0.2457
   64.680    0.1931
   64.950    0.2984
   65.220    0.2984
   65.490    0.2808
   65.760    0.3335
   66.030    0.3511
   66.300    0.2808
   66.570    0.1755
   66.840    0.1580
   67.110    0.2282
   67.380    0.1931
   67.650    0.2633
   67.920    0.2282
   68.190    0.2282
   68.460    0.2106
   68.730    0.2808
   69.000    0.1931
   69.270    0.1931
   69.540    0.2633
   69.810    0.1404
   70.080    0.2106
   70.350    0.2282
   70.620    0.2633
   70.890    0.1404
   71.160    0.2633
   71.430    0.1580
   71.700    0.2808
   71.970    0.2633
   72.240    0.2106
   72.510    0.2457
   72.780    0.1931
   73.050    0.2106
   73.320    0.2457
   73.590    0.1755
   73.860    0.2633
   74.130    0.2282
   74.400    0.2808
   74.670    0.2808
   74.940    0.2282
   75.210    0.1404
   75.480    0.1580
   75.750    0.2106
   76.020    0.2808
   76.290    0.1931
   76.560    0.2457
   76.830    0.2457
   77.100    0.1404
   77.370    0.2106
   77.640    0.2457
   77.910    0.2984
   78.180    0.3160
   78.450    0.1931
   78.720    0.3160
   78.990    0.1931
   79.260    0.2457
   79.530    0.2282
   79.800    0.3686
   79.980    0.1580