File: data/MOCOF-1/PXRD/PXRD_KE-232_Co-Ka1_film-3mm_5s-deg.xyd
    1.500    6.8700
    1.635    5.8534
    1.770    5.3612
    1.905    4.5158
    2.040    4.2804
    2.175    3.5848
    2.310    3.5206
    2.445    3.1996
    2.580    2.7394
    2.715    2.9749
    2.850    2.7822
    2.985    2.3863
    3.120    2.5254
    3.255    2.5147
    3.390    2.3114
    3.525    2.9106
    3.660    3.2103
    3.795    4.4516
    3.930    7.7154
    4.065    9.9732
    4.200    4.8903
    4.335    6.3135
    4.470   15.0883
    4.605    5.0294
    4.740    4.7191
    4.875    4.0128
    5.010    2.6003
    5.145    2.1616
    5.280    2.0011
    5.415    1.6265
    5.550    1.7121
    5.685    1.8085
    5.820    1.6586
    5.955    1.7121
    6.090    2.1723
    6.225    2.3863
    6.360    4.8582
    6.495    2.1188
    6.630    1.8727
    6.765    1.7549
    6.900    1.6479
    7.035    1.3055
    7.170    1.6158
    7.305    1.3483
    7.440    1.4660
    7.575    1.4874
    7.710    1.6051
    7.845    2.8785
    7.980    1.5516
    8.115    2.0546
    8.250    1.2520
    8.385    1.2734
    8.520    1.0380
    8.655    1.0594
    8.790    1.2092
    8.925    1.2520
    9.060    2.6003
    9.195    1.1878
    9.330    1.1022
    9.465    1.2627
    9.600    1.0915
    9.735    1.0594
    9.870    1.0273
   10.005    1.1129
   10.140    1.1450
   10.275    0.9845
   10.410    1.0915
   10.545    0.9738
   10.680    0.9524
   10.815    0.8882
   10.950    1.0380
   11.085    2.6431
   11.220    1.0166
   11.355    0.8989
   11.490    0.9952
   11.625    0.8240
   11.760    0.9524
   11.895    0.9738
   12.030    1.7014
   12.165    0.8989
   12.300    0.9203
   12.435    0.8240
   12.570    0.8347
   12.705    0.8347
   12.840    1.7657
   12.975    0.7812
   13.110    0.8561
   13.245    0.9310
   13.380    0.8989
   13.515    0.9203
   13.650    1.6479
   13.785    0.9631
   13.920    0.9096
   14.055    0.9738
   14.190    0.8668
   14.325    0.8347
   14.460    0.9310
   14.595    0.8668
   14.730    0.9738
   14.865    0.9310
   15.000    0.9203
   15.135    0.8668
   15.270    0.9845
   15.405    0.8882
   15.540    0.8133
   15.675    0.8026
   15.810    0.8240
   15.945    0.7919
   16.080    0.7705
   16.215    0.7705
   16.350    1.0059
   16.485    0.8454
   16.620    0.7919
   16.755    0.9310
   16.890    0.8775
   17.025    0.7598
   17.160    0.9631
   17.295    0.9524
   17.430    0.6956
   17.565    0.7705
   17.700    0.9631
   17.835    0.8775
   17.970    0.8454
   18.105    0.7491
   18.240    0.8668
   18.375    0.7705
   18.510    0.8882
   18.645    0.9203
   18.780    1.0594
   18.915    0.8775
   19.050    0.9524
   19.185    0.7277
   19.320    0.9310
   19.455    0.6849
   19.590    0.8454
   19.725    0.8561
   19.860    1.4874
   19.995    0.8454
   20.130    0.6849
   20.265    0.8882
   20.400    0.9203
   20.535    0.7063
   20.670    0.8240
   20.805    0.8668
   20.940    0.6635
   21.075    0.7384
   21.210    0.8133
   21.345    0.7598
   21.480    0.7919
   21.615    0.8454
   21.750    0.6849
   21.885    0.7277
   22.020    0.6849
   22.155    0.9096
   22.290    0.7812
   22.425    0.6742
   22.560    0.7491
   22.695    0.7384
   22.830    0.8454
   22.965    0.6207
   23.100    0.8240
   23.235    0.7812
   23.370    0.7919
   23.505    0.7063
   23.640    0.7598
   23.775    0.8026
   23.910    0.7277
   24.045    0.6100
   24.180    0.6742
   24.315    0.7812
   24.450    0.6421
   24.585    0.7277
   24.720    0.6635
   24.855    0.7277
   24.990    0.7170
   25.125    0.6314
   25.260    0.7384
   25.395    0.7063
   25.530    0.7384
   25.665    0.7277
   25.800    0.7170
   25.935    0.7919
   26.070    0.7277
   26.205    0.8240
   26.340    0.7063
   26.475    0.5564
   26.610    0.6207
   26.745    0.7491
   26.880    0.6635
   27.015    0.5993
   27.150    0.7491
   27.285    0.6742
   27.420    0.6742
   27.555    0.5564
   27.690    0.5778
   27.825    0.4922
   27.960    0.5886
   28.095    0.6635
   28.230    0.5993
   28.365    0.5564
   28.500    0.6207
   28.635    0.5564
   28.770    0.6100
   28.905    0.4708
   29.040    0.6100
   29.175    0.6742
   29.310    0.5243
   29.445    0.6207
   29.580    0.4708
   29.715    0.5671
   29.850    0.4815
   29.985    0.5886
   30.120    0.8026
   30.255    0.6100
   30.390    0.4280
   30.525    0.5457
   30.660    0.4815
   30.795    0.6956
   30.930    0.3210
   31.065    0.5671
   31.200    0.4922
   31.335    0.5457
   31.470    0.4708
   31.605    0.4922
   31.740    0.4601
   31.875    0.3852
   32.010    0.5136
   32.145    0.6207
   32.280    0.5029
   32.415    0.5136
   32.550    0.4066
   32.685    0.3959
   32.820    0.5564
   32.955    0.4494
   33.090    0.4387
   33.225    0.4708
   33.360    0.4494
   33.495    0.4173
   33.630    0.5457
   33.765    0.8133
   33.900    0.4708
   34.035    0.4173
   34.170    0.4922
   34.305    0.4922
   34.440    0.5029
   34.575    0.4601
   34.710    0.3103
   34.845    0.3959
   34.980    0.4173
   35.115    0.4066
   35.250    0.3959
   35.385    0.3852
   35.520    0.3317
   35.655    0.4066
   35.790    0.2782
   35.925    0.3531
   36.060    0.3103
   36.195    0.3317
   36.330    0.3424
   36.465    0.3852
   36.600    0.3424
   36.735    0.4066
   36.870    0.4066
   37.005    0.3317
   37.140    0.3531
   37.275    0.2889
   37.410    0.4494
   37.545    0.3745
   37.680    0.3103
   37.815    0.2247
   37.950    0.3638
   38.085    0.3852
   38.220    0.3852
   38.355    0.3317
   38.490    0.2782
   38.625    0.3745
   38.760    0.3210
   38.895    0.2782
   39.030    0.4066
   39.165    0.3317
   39.300    0.2996
   39.435    0.3317
   39.570    0.3317
   39.705    0.3210
   39.840    0.2889
   39.975    0.2889
   39.990    0.2675