File: data/MOCOF-1/PXRD/PXRD_KE-104_Cu-Ka1_capillary-1mm_5s-deg.xyd
    1.500    2.7804
    1.635    2.6646
    1.770    3.1912
    1.905    2.8120
    2.040    2.8963
    2.175    3.1069
    2.310    2.9805
    2.445    2.8225
    2.580    3.0226
    2.715    3.1912
    2.850    3.0437
    2.985    3.0542
    3.120    3.2649
    3.255    3.1701
    3.390    3.0542
    3.525    3.0437
    3.660    2.8752
    3.795    3.5914
    3.930    3.2965
    4.065    2.7593
    4.200    2.9068
    4.335    3.0016
    4.470    3.0437
    4.605    2.9384
    4.740    2.8752
    4.875    2.9068
    5.010    2.8647
    5.145    3.0437
    5.280    2.8541
    5.415    3.2543
    5.550    3.1280
    5.685    3.1385
    5.820    3.1596
    5.955    2.8331
    6.090    3.0332
    6.225    2.8963
    6.360    2.7699
    6.495    2.8120
    6.630    2.9910
    6.765    3.0753
    6.900    2.8331
    7.035    2.9805
    7.170    2.9489
    7.305    2.9805
    7.440    2.8647
    7.575    2.7909
    7.710    3.0648
    7.845    3.1069
    7.980    3.0121
    8.115    3.1280
    8.250    2.6646
    8.385    2.8225
    8.520    2.7067
    8.655    3.0016
    8.790    2.9595
    8.925    2.9068
    9.060    2.7593
    9.195    2.8752
    9.330    2.8120
    9.465    2.9279
    9.600    2.7172
    9.735    3.1174
    9.870    2.7278
   10.005    2.8963
   10.140    2.7278
   10.275    3.2333
   10.410    2.9068
   10.545    2.6962
   10.680    2.8963
   10.815    2.6962
   10.950    2.9595
   11.085    2.9805
   11.220    3.1174
   11.355    2.9700
   11.490    2.8647
   11.625    2.8857
   11.760    3.1912
   11.895    2.8436
   12.030    2.9279
   12.165    2.9805
   12.300    3.0121
   12.435    3.1385
   12.570    2.9595
   12.705    3.1280
   12.840    3.2438
   12.975    3.1806
   13.110    2.9700
   13.245    3.1069
   13.380    3.1385
   13.515    3.3597
   13.650    3.3070
   13.785    3.0753
   13.920    3.2017
   14.055    3.2333
   14.190    3.3175
   14.325    3.2227
   14.460    3.5387
   14.595    3.3175
   14.730    3.3913
   14.865    3.2754
   15.000    3.5598
   15.135    3.7072
   15.270    3.6756
   15.405    3.6335
   15.540    3.5703
   15.675    3.3175
   15.810    3.7599
   15.945    3.6335
   16.080    3.7915
   16.215    3.7809
   16.350    3.5703
   16.485    3.8757
   16.620    4.3075
   16.755    4.1074
   16.890    3.9810
   17.025    3.9916
   17.160    4.2443
   17.295    4.1285
   17.430    4.5708
   17.565    4.2654
   17.700    4.0548
   17.835    4.3918
   17.970    4.4339
   18.105    4.4023
   18.240    4.3075
   18.375    4.2654
   18.510    4.6551
   18.645    4.4444
   18.780    4.6235
   18.915    4.6024
   19.050    4.6340
   19.185    4.7604
   19.320    4.8657
   19.455    4.7077
   19.590    5.0026
   19.725    4.5919
   19.860    4.7393
   19.995    4.3075
   20.130    4.5708
   20.265    4.5076
   20.400    4.6551
   20.535    4.4339
   20.670    4.4444
   20.805    4.1601
   20.940    4.2865
   21.075    4.1917
   21.210    4.2022
   21.345    4.6024
   21.480    4.2338
   21.615    4.0548
   21.750    4.1180
   21.885    3.7493
   22.020    3.8125
   22.155    3.8441
   22.290    3.9600
   22.425    3.6440
   22.560    3.5914
   22.695    3.9284
   22.830    3.9284
   22.965    3.7493
   23.100    3.5703
   23.235    3.8336
   23.370    3.4966
   23.505    3.6124
   23.640    3.6651
   23.775    3.7283
   23.910    3.6651
   24.045    3.4755
   24.180    3.1912
   24.315    3.0753
   24.450    3.3807
   24.585    3.4123
   24.720    3.0648
   24.855    3.3281
   24.990    3.0226
   25.125    3.0437
   25.260    3.2438
   25.395    3.0753
   25.530    3.0121
   25.665    3.0121
   25.800    3.2543
   25.935    3.0332
   26.070    3.1806
   26.205    3.1069
   26.340    2.9384
   26.475    3.0753
   26.610    2.8963
   26.745    2.8963
   26.880    2.7593
   27.015    2.8225
   27.150    2.6330
   27.285    2.8331
   27.420    2.6856
   27.555    2.9910
   27.690    2.7278
   27.825    2.9700
   27.960    2.9279
   28.095    2.6962
   28.230    2.7278
   28.365    2.9279
   28.500    2.6330
   28.635    2.5698
   28.770    2.6119
   28.905    2.3275
   29.040    2.5803
   29.175    2.6014
   29.310    2.7278
   29.445    2.6330
   29.580    2.4961
   29.715    2.3907
   29.850    2.5276
   29.985    2.8225
   30.120    2.8857
   30.255    2.6435
   30.390    2.3907
   30.525    2.6014
   30.660    2.2643
   30.795    2.4013
   30.930    2.3591
   31.065    2.6119
   31.200    2.6856
   31.335    2.4750
   31.470    2.4855
   31.605    2.2222
   31.740    2.2222
   31.875    2.4329
   32.010    2.3591
   32.145    2.2643
   32.280    2.3065
   32.415    2.0011
   32.550    2.0326
   32.685    2.2959
   32.820    2.1064
   32.955    2.0221
   33.090    2.0116
   33.225    1.8431
   33.360    1.8747
   33.495    1.9905
   33.630    1.8957
   33.765    1.7062
   33.900    2.0642
   34.035    2.0326
   34.170    1.8852
   34.305    2.1485
   34.440    1.8747
   34.575    1.9589
   34.710    2.0011
   34.845    1.9063
   34.980    1.7167
   35.115    1.6851
   35.250    1.7694
   35.385    1.7588
   35.520    1.8747
   35.655    1.8115
   35.790    1.7799
   35.925    1.8009
   36.060    1.6956
   36.195    1.6640
   36.330    1.4955
   36.465    1.7904
   36.600    1.5903
   36.735    1.5798
   36.870    1.4429
   37.005    1.5692
   37.140    1.5482
   37.275    1.7483
   37.410    1.5271
   37.545    1.4955
   37.680    1.5377
   37.815    1.5587
   37.950    1.4639
   38.085    1.5166
   38.220    1.5482
   38.355    1.3586
   38.490    1.5061
   38.625    1.3270
   38.760    1.4534
   38.895    1.5271
   39.030    1.4113
   39.165    1.2744
   39.300    1.3902
   39.435    1.3586
   39.570    1.4850
   39.705    1.4323
   39.840    1.5061
   39.975    1.6430
   39.990    1.4323