File: data/MOCOF-1/PXRD/PXRD_KE-070_Cu-Ka1_capillary-1mm_5s-deg.xyd
    1.500   10.7109
    1.635   10.5845
    1.770   10.1948
    1.905   10.0158
    2.040    9.6472
    2.175   10.6898
    2.310   11.2902
    2.445   12.6698
    2.580   14.4602
    2.715   15.9979
    2.850   19.5155
    2.985   23.7809
    3.120   30.7741
    3.255   40.2738
    3.390   61.4218
    3.525   70.8478
    3.660   34.0390
    3.795   31.8905
    3.930   36.5140
    4.065   30.0895
    4.200   22.0221
    4.335   13.7019
    4.470    8.8678
    4.605    7.1406
    4.740    6.3507
    4.875    6.1190
    5.010    5.8136
    5.145    5.4766
    5.280    5.3607
    5.415    5.3397
    5.550    5.3607
    5.685    4.5603
    5.820    4.5182
    5.955    4.2443
    6.090    4.4128
    6.225    4.9500
    6.360    4.8131
    6.495    4.8763
    6.630    5.9821
    6.765    7.4250
    6.900    9.3418
    7.035    9.7841
    7.170    5.9610
    7.305    5.7188
    7.440    5.1711
    7.575    5.4450
    7.710    6.0242
    7.845    6.7404
    7.980    6.7615
    8.115    6.4560
    8.250    6.1717
    8.385    6.2138
    8.520    5.6661
    8.655    4.9605
    8.790    5.0869
    8.925    4.2654
    9.060    4.3707
    9.195    4.6235
    9.330    4.2759
    9.465    4.2443
    9.600    4.5287
    9.735    4.0969
    9.870    4.1811
   10.005    3.8547
   10.140    4.1917
   10.275    4.4655
   10.410    4.6445
   10.545    4.3918
   10.680    4.0442
   10.815    4.1180
   10.950    4.2865
   11.085    4.4234
   11.220    4.1180
   11.355    4.1285
   11.490    4.2549
   11.625    4.0232
   11.760    4.4444
   11.895    4.2865
   12.030    4.1811
   12.165    4.2759
   12.300    4.3707
   12.435    4.4339
   12.570    4.3181
   12.705    4.0758
   12.840    4.3075
   12.975    4.4760
   13.110    3.8968
   13.245    4.2338
   13.380    4.0337
   13.515    3.9916
   13.650    4.0969
   13.785    4.0758
   13.920    3.9179
   14.055    4.0758
   14.190    3.6546
   14.325    3.8757
   14.460    3.4544
   14.595    3.8652
   14.730    4.1601
   14.865    3.9810
   15.000    3.8231
   15.135    4.0758
   15.270    3.9916
   15.405    4.0758
   15.540    3.7283
   15.675    4.0548
   15.810    4.0126
   15.945    3.7283
   16.080    4.0969
   16.215    3.8231
   16.350    3.9073
   16.485    3.8336
   16.620    3.8020
   16.755    3.9916
   16.890    3.9073
   17.025    3.8968
   17.160    3.9073
   17.295    3.5492
   17.430    3.9389
   17.565    3.8757
   17.700    3.9284
   17.835    3.9073
   17.970    3.8968
   18.105    3.6440
   18.240    4.0758
   18.375    3.6230
   18.510    3.9284
   18.645    3.8863
   18.780    4.2865
   18.915    4.1285
   19.050    4.4550
   19.185    4.3497
   19.320    3.6651
   19.455    4.1074
   19.590    4.0337
   19.725    4.3075
   19.860    4.0232
   19.995    4.1074
   20.130    4.0126
   20.265    4.0653
   20.400    4.6656
   20.535    4.1917
   20.670    4.4023
   20.805    4.3602
   20.940    4.3602
   21.075    4.0548
   21.210    4.0548
   21.345    4.4866
   21.480    4.1390
   21.615    4.2443
   21.750    4.3075
   21.885    3.9389
   22.020    4.3075
   22.155    4.3181
   22.290    4.2549
   22.425    4.1917
   22.560    3.9916
   22.695    4.2233
   22.830    4.0969
   22.965    4.2654
   23.100    4.2127
   23.235    3.9705
   23.370    4.0758
   23.505    4.2022
   23.640    4.1811
   23.775    4.1390
   23.910    3.9916
   24.045    3.9705
   24.180    4.0232
   24.315    3.7493
   24.450    3.8020
   24.585    4.2970
   24.720    3.6546
   24.855    4.0232
   24.990    3.9179
   25.125    3.7072
   25.260    4.0864
   25.395    3.8441
   25.530    3.6862
   25.665    4.0548
   25.800    3.6440
   25.935    3.9284
   26.070    3.7283
   26.205    3.5071
   26.340    3.6651
   26.475    3.6335
   26.610    3.6019
   26.745    3.5914
   26.880    3.3281
   27.015    3.5914
   27.150    3.5703
   27.285    3.3913
   27.420    3.7388
   27.555    3.5071
   27.690    3.4966
   27.825    3.3386
   27.960    3.7177
   28.095    3.8652
   28.230    3.6440
   28.365    3.0332
   28.500    3.3175
   28.635    3.3281
   28.770    3.1701
   28.905    3.3597
   29.040    3.9073
   29.175    3.4229
   29.310    3.7177
   29.445    3.2333
   29.580    3.4544
   29.715    3.1385
   29.850    3.2649
   29.985    2.9805
   30.120    2.9595
   30.255    3.0964
   30.390    3.1912
   30.525    3.4334
   30.660    3.0332
   30.795    3.2543
   30.930    3.3175
   31.065    2.9910
   31.200    3.2965
   31.335    2.9279
   31.470    3.1912
   31.605    3.2859
   31.740    3.1069
   31.875    3.1701
   32.010    3.2333
   32.145    3.6651
   32.280    3.0332
   32.415    2.8857
   32.550    2.9173
   32.685    2.8541
   32.820    2.8647
   32.955    3.0648
   33.090    2.9173
   33.225    2.7909
   33.360    2.8963
   33.495    2.9489
   33.630    2.6330
   33.765    2.7383
   33.900    3.1069
   34.035    2.7699
   34.170    2.8015
   34.305    2.3697
   34.440    2.4118
   34.575    2.5171
   34.710    2.4645
   34.845    2.4645
   34.980    2.6435
   35.115    2.7067
   35.250    2.6646
   35.385    2.3802
   35.520    2.3275
   35.655    2.5487
   35.790    2.4855
   35.925    2.5698
   36.060    2.6224
   36.195    2.5803
   36.330    2.4855
   36.465    2.3802
   36.600    2.4645
   36.735    2.2959
   36.870    2.3170
   37.005    2.5171
   37.140    2.1696
   37.275    2.5908
   37.410    2.2433
   37.545    2.4013
   37.680    2.4329
   37.815    2.2538
   37.950    2.1485
   38.085    2.3170
   38.220    2.1485
   38.355    2.4329
   38.490    2.4539
   38.625    2.1169
   38.760    2.1485
   38.895    1.9695
   39.030    2.2222
   39.165    2.1064
   39.300    2.2222
   39.435    2.2117
   39.570    2.2643
   39.705    2.1274
   39.840    2.1590
   39.975    2.2433
   39.990    2.3275