File: data/MOCOF-1/PXRD/PXRD_KE-044_Cu-Ka1_capillary-1mm_5s-deg.xyd
    1.500   15.7873
    1.635   14.6603
    1.770   14.6498
    1.905   14.0600
    2.040   14.6814
    2.175   14.2075
    2.310   15.4924
    2.445   16.5140
    2.580   19.5155
    2.715   21.7483
    2.850   25.0974
    2.985   32.1432
    3.120   40.3476
    3.255   56.1980
    3.390   88.7204
    3.525   93.5229
    3.660   52.0379
    3.795   60.6003
    3.930   58.6730
    4.065   24.6340
    4.200   11.9115
    4.335    8.1095
    4.470    6.6667
    4.605    6.0137
    4.740    5.7293
    4.875    5.7399
    5.010    5.5819
    5.145    5.4450
    5.280    5.9400
    5.415    6.0874
    5.550    7.0563
    5.685    4.8447
    5.820    4.9605
    5.955    4.7499
    6.090    4.7499
    6.225    5.0869
    6.360    5.1606
    6.495    6.2454
    6.630    7.2880
    6.765   10.5635
    6.900   15.9347
    7.035   14.6182
    7.170    7.3723
    7.305    6.7720
    7.440    7.9831
    7.575   10.0790
    7.710   13.6282
    7.845   14.2917
    7.980    9.5945
    8.115    6.3612
    8.250    5.4766
    8.385    4.7604
    8.520    4.8341
    8.655    4.6340
    8.790    4.2970
    8.925    4.3391
    9.060    4.4971
    9.195    4.2233
    9.330    4.6130
    9.465    4.3497
    9.600    4.8973
    9.735    4.1706
    9.870    4.3391
   10.005    4.1390
   10.140    4.5814
   10.275    4.3707
   10.410    4.6867
   10.545    4.8236
   10.680    4.4234
   10.815    4.0758
   10.950    4.3813
   11.085    4.3602
   11.220    4.3813
   11.355    4.2127
   11.490    4.7604
   11.625    5.2343
   11.760    5.7188
   11.895    5.2238
   12.030    4.4444
   12.165    4.7077
   12.300    4.6867
   12.435    4.3391
   12.570    4.3602
   12.705    4.5287
   12.840    4.6656
   12.975    4.5182
   13.110    4.5392
   13.245    4.4444
   13.380    4.4550
   13.515    4.7604
   13.650    4.2970
   13.785    4.4760
   13.920    4.5076
   14.055    4.2970
   14.190    4.1706
   14.325    4.1811
   14.460    4.0969
   14.595    4.2443
   14.730    4.2759
   14.865    4.3602
   15.000    4.3391
   15.135    4.4023
   15.270    4.2233
   15.405    4.6551
   15.540    4.7077
   15.675    4.6551
   15.810    4.2970
   15.945    4.7288
   16.080    4.3391
   16.215    4.8131
   16.350    3.8231
   16.485    4.1285
   16.620    3.8757
   16.755    4.2443
   16.890    4.4760
   17.025    4.5182
   17.160    4.5814
   17.295    4.3602
   17.430    4.6761
   17.565    4.4655
   17.700    4.3286
   17.835    4.4444
   17.970    4.6235
   18.105    4.5182
   18.240    4.4550
   18.375    4.3602
   18.510    4.3602
   18.645    4.2443
   18.780    4.4128
   18.915    4.4444
   19.050    4.2549
   19.185    4.5392
   19.320    4.3075
   19.455    5.0026
   19.590    4.6656
   19.725    4.6445
   19.860    4.5708
   19.995    4.6867
   20.130    4.8447
   20.265    5.2449
   20.400    4.9184
   20.535    4.9921
   20.670    4.8341
   20.805    4.9500
   20.940    5.1711
   21.075    4.8973
   21.210    5.2765
   21.345    5.4028
   21.480    5.1922
   21.615    5.4028
   21.750    4.7709
   21.885    4.6445
   22.020    5.0448
   22.155    5.1606
   22.290    5.2870
   22.425    5.2554
   22.560    5.3291
   22.695    5.1922
   22.830    5.4028
   22.965    5.3081
   23.100    5.1711
   23.235    5.0764
   23.370    5.2343
   23.505    4.8657
   23.640    4.7709
   23.775    4.4023
   23.910    5.0237
   24.045    4.5287
   24.180    4.6761
   24.315    5.1290
   24.450    4.7393
   24.585    4.5919
   24.720    4.7815
   24.855    4.6972
   24.990    4.6340
   25.125    4.6656
   25.260    4.3813
   25.395    4.3286
   25.530    4.0969
   25.665    4.2549
   25.800    4.4023
   25.935    4.3918
   26.070    4.0864
   26.205    4.1074
   26.340    4.2443
   26.475    4.5603
   26.610    4.3602
   26.745    4.5708
   26.880    4.4444
   27.015    4.5392
   27.150    4.5708
   27.285    4.3075
   27.420    4.0548
   27.555    4.3075
   27.690    4.2865
   27.825    4.3813
   27.960    4.1285
   28.095    4.0232
   28.230    4.3181
   28.365    4.2443
   28.500    4.1496
   28.635    4.0864
   28.770    4.0864
   28.905    3.8863
   29.040    3.9600
   29.175    3.8652
   29.310    4.0337
   29.445    4.2127
   29.580    4.1074
   29.715    4.0232
   29.850    3.9179
   29.985    3.9073
   30.120    3.7493
   30.255    3.7704
   30.390    4.0126
   30.525    4.1390
   30.660    3.7283
   30.795    3.7809
   30.930    3.9284
   31.065    3.6019
   31.200    3.7809
   31.335    3.6967
   31.470    4.0758
   31.605    3.6546
   31.740    3.8757
   31.875    3.5808
   32.010    3.5492
   32.145    3.6124
   32.280    3.7283
   32.415    3.5703
   32.550    3.5282
   32.685    3.4860
   32.820    3.7177
   32.955    3.5703
   33.090    3.6124
   33.225    3.4755
   33.360    3.4439
   33.495    3.3491
   33.630    3.1701
   33.765    3.5176
   33.900    3.2227
   34.035    3.2543
   34.170    3.3491
   34.305    3.0332
   34.440    3.0753
   34.575    3.3281
   34.710    2.9489
   34.845    3.2333
   34.980    3.1069
   35.115    2.8647
   35.250    3.3807
   35.385    3.0858
   35.520    3.1490
   35.655    3.1912
   35.790    2.9068
   35.925    2.9489
   36.060    2.6856
   36.195    2.8647
   36.330    2.8647
   36.465    3.0121
   36.600    2.8752
   36.735    2.4750
   36.870    2.8225
   37.005    2.8857
   37.140    2.8647
   37.275    2.9910
   37.410    3.0332
   37.545    2.6435
   37.680    2.9384
   37.815    2.7278
   37.950    2.6119
   38.085    2.6330
   38.220    2.5592
   38.355    2.8015
   38.490    2.5803
   38.625    2.8963
   38.760    2.6330
   38.895    2.7488
   39.030    2.7699
   39.165    2.5698
   39.300    2.7488
   39.435    2.7383
   39.570    2.6856
   39.705    2.8541
   39.840    2.5698
   39.975    2.7383
   39.990    2.7699