File: data/MOCOF-1/PXRD/PXRD_KE-164_Cu-Ka1_capillary-1mm_5s-deg.xyd
    1.500   59.6419
    1.635   50.9531
    1.770   41.0111
    1.905   33.1648
    2.040   28.3623
    2.175   23.1806
    2.310   19.9052
    2.445   17.2407
    2.580   14.7551
    2.715   12.8489
    2.850   11.2480
    2.985   10.7109
    3.120    9.6051
    3.255    8.7204
    3.390    7.5513
    3.525    7.9831
    3.660    6.8773
    3.795    6.9194
    3.930    6.2033
    4.065    6.5403
    4.200    5.8241
    4.335    5.7820
    4.470    5.5503
    4.605    5.1606
    4.740    5.0974
    4.875    5.6661
    5.010    5.2870
    5.145    4.9184
    5.280    5.0342
    5.415    5.0026
    5.550    4.7709
    5.685    4.8763
    5.820    4.6972
    5.955    5.0658
    6.090    4.8657
    6.225    4.5603
    6.360    4.4760
    6.495    5.0132
    6.630    5.1395
    6.765    4.7393
    6.900    4.7393
    7.035    4.5919
    7.170    4.4760
    7.305    4.5076
    7.440    4.6761
    7.575    4.8868
    7.710    4.5182
    7.845    4.6551
    7.980    4.8657
    8.115    4.7393
    8.250    4.8973
    8.385    5.1290
    8.520    5.2238
    8.655    4.6130
    8.790    4.6972
    8.925    4.6445
    9.060    4.9394
    9.195    5.0342
    9.330    4.8025
    9.465    4.6761
    9.600    4.9394
    9.735    5.1711
    9.870    5.1290
   10.005    4.6656
   10.140    4.8973
   10.275    4.8868
   10.410    5.0342
   10.545    5.4766
   10.680    4.9289
   10.815    5.2449
   10.950    4.7183
   11.085    5.0658
   11.220    4.9394
   11.355    4.7183
   11.490    4.8341
   11.625    4.5287
   11.760    4.6972
   11.895    4.4550
   12.030    4.9289
   12.165    4.6024
   12.300    4.3602
   12.435    4.4339
   12.570    4.6445
   12.705    4.3391
   12.840    4.3286
   12.975    4.6761
   13.110    4.4550
   13.245    4.1285
   13.380    4.3075
   13.515    4.1706
   13.650    4.5076
   13.785    4.1811
   13.920    4.3707
   14.055    4.4339
   14.190    4.3813
   14.325    4.1074
   14.460    4.4128
   14.595    4.5603
   14.730    3.8968
   14.865    4.0758
   15.000    4.3391
   15.135    4.2022
   15.270    3.9494
   15.405    4.1390
   15.540    4.2970
   15.675    4.4234
   15.810    3.9916
   15.945    4.3707
   16.080    4.2127
   16.215    4.3602
   16.350    4.5919
   16.485    4.3391
   16.620    4.2127
   16.755    4.6130
   16.890    4.3918
   17.025    4.1285
   17.160    4.3181
   17.295    4.0442
   17.430    4.1706
   17.565    4.3602
   17.700    4.0548
   17.835    4.3075
   17.970    4.2233
   18.105    4.2127
   18.240    4.1496
   18.375    4.0442
   18.510    3.9494
   18.645    4.1917
   18.780    4.4866
   18.915    4.4760
   19.050    4.3707
   19.185    4.1496
   19.320    4.4866
   19.455    4.3707
   19.590    4.2654
   19.725    4.3707
   19.860    4.2759
   19.995    4.7393
   20.130    4.7288
   20.265    4.4234
   20.400    4.3286
   20.535    4.3075
   20.670    4.3602
   20.805    4.5708
   20.940    4.5182
   21.075    4.2759
   21.210    4.2654
   21.345    4.2970
   21.480    4.3602
   21.615    4.4234
   21.750    4.4444
   21.885    3.9810
   22.020    4.3918
   22.155    4.2865
   22.290    4.5182
   22.425    4.2233
   22.560    4.4971
   22.695    4.5392
   22.830    4.4234
   22.965    4.6130
   23.100    4.7604
   23.235    4.2549
   23.370    4.0126
   23.505    4.3181
   23.640    4.2127
   23.775    4.2759
   23.910    4.4128
   24.045    4.3075
   24.180    4.2759
   24.315    4.1917
   24.450    4.4866
   24.585    4.1811
   24.720    4.1917
   24.855    4.2654
   24.990    3.7072
   25.125    3.9916
   25.260    4.0758
   25.395    4.2338
   25.530    3.9179
   25.665    3.9705
   25.800    3.7809
   25.935    4.0126
   26.070    3.9284
   26.205    4.3391
   26.340    3.9810
   26.475    3.9073
   26.610    3.9284
   26.745    3.8652
   26.880    3.9916
   27.015    4.0969
   27.150    3.9494
   27.285    4.0758
   27.420    3.9494
   27.555    4.1917
   27.690    3.8547
   27.825    3.9389
   27.960    3.9073
   28.095    3.8547
   28.230    4.0758
   28.365    3.6756
   28.500    3.6335
   28.635    3.6756
   28.770    3.9705
   28.905    3.4755
   29.040    3.7599
   29.175    3.7809
   29.310    3.4755
   29.445    3.6862
   29.580    3.4229
   29.715    3.7177
   29.850    3.6230
   29.985    3.9600
   30.120    3.4755
   30.255    3.3070
   30.390    3.6019
   30.525    3.3070
   30.660    3.4860
   30.795    3.5071
   30.930    3.3386
   31.065    3.4123
   31.200    3.5282
   31.335    3.5282
   31.470    3.4860
   31.605    3.2754
   31.740    3.3175
   31.875    3.5808
   32.010    3.6967
   32.145    3.0542
   32.280    3.5282
   32.415    3.2649
   32.550    3.0858
   32.685    3.0016
   32.820    3.1280
   32.955    3.3807
   33.090    3.0648
   33.225    3.1385
   33.360    3.2754
   33.495    2.9805
   33.630    3.1174
   33.765    3.2227
   33.900    3.1069
   34.035    3.0437
   34.170    2.9068
   34.305    3.0964
   34.440    3.0121
   34.575    2.8120
   34.710    3.0437
   34.845    2.8225
   34.980    3.1069
   35.115    3.0437
   35.250    3.0332
   35.385    2.8225
   35.520    2.9068
   35.655    2.8225
   35.790    2.6962
   35.925    3.0121
   36.060    2.7699
   36.195    2.6856
   36.330    2.7804
   36.465    2.7278
   36.600    2.7804
   36.735    2.8015
   36.870    2.6119
   37.005    2.7067
   37.140    2.7172
   37.275    2.5066
   37.410    2.8225
   37.545    2.8647
   37.680    2.8331
   37.815    2.6856
   37.950    2.5382
   38.085    2.5698
   38.220    2.7172
   38.355    2.4434
   38.490    2.8331
   38.625    2.4645
   38.760    2.7067
   38.895    2.7278
   39.030    2.4855
   39.165    2.7699
   39.300    2.9068
   39.435    2.7067
   39.570    2.3697
   39.705    2.6330
   39.840    2.6962
   39.975    2.8225
   39.990    2.7383