File: data/MOCOF-1/PXRD/PXRD_KE-041_Cu-Ka1_capillary-1mm_5s-deg.xyd
    1.500    5.6714
    1.635    5.8768
    1.770    5.6135
    1.905    5.2765
    2.040    5.4397
    2.175    5.7188
    2.310    5.9663
    2.445    6.0611
    2.580    6.4297
    2.715    6.8668
    2.850    7.3670
    2.985    7.8568
    3.120    9.0258
    3.255    9.8104
    3.390   11.6956
    3.525   11.5324
    3.660    8.7520
    3.795    8.3307
    3.930    7.6251
    4.065    6.2981
    4.200    5.6240
    4.335    5.3660
    4.470    4.9078
    4.605    4.7446
    4.740    4.6761
    4.875    4.4234
    5.010    4.4708
    5.145    4.2759
    5.280    4.1285
    5.415    4.0074
    5.550    3.9494
    5.685    4.1127
    5.820    4.1285
    5.955    4.1496
    6.090    4.0390
    6.225    4.3602
    6.360    4.0284
    6.495    4.2338
    6.630    4.5234
    6.765    4.8078
    6.900    5.0237
    7.035    5.1553
    7.170    4.4655
    7.305    4.4076
    7.440    4.5498
    7.575    4.4181
    7.710    4.9710
    7.845    4.8499
    7.980    4.8131
    8.115    4.6077
    8.250    4.2233
    8.385    4.0021
    8.520    4.0179
    8.655    3.9916
    8.790    3.9336
    8.925    4.1811
    9.060    4.0548
    9.195    3.8810
    9.330    3.9021
    9.465    3.7809
    9.600    3.8073
    9.735    3.7441
    9.870    3.6072
   10.005    3.9652
   10.140    3.7125
   10.275    3.7335
   10.410    3.7862
   10.545    3.9126
   10.680    4.0021
   10.815    3.7441
   10.950    3.6967
   11.085    3.8915
   11.220    3.6493
   11.355    3.7125
   11.490    3.4808
   11.625    3.8020
   11.760    3.7388
   11.895    3.8652
   12.030    3.8494
   12.165    3.7915
   12.300    3.5861
   12.435    3.7493
   12.570    3.4439
   12.705    3.7177
   12.840    3.7230
   12.975    3.7546
   13.110    3.4439
   13.245    3.7809
   13.380    3.5071
   13.515    3.6440
   13.650    3.8757
   13.785    3.5861
   13.920    3.6177
   14.055    3.6440
   14.190    3.6756
   14.325    3.5861
   14.460    3.7546
   14.595    3.7546
   14.730    3.5808
   14.865    3.5861
   15.000    3.6546
   15.135    3.6124
   15.270    3.5071
   15.405    3.5703
   15.540    3.5492
   15.675    3.6177
   15.810    3.4808
   15.945    3.4229
   16.080    3.4492
   16.215    3.4702
   16.350    3.8441
   16.485    3.3807
   16.620    3.6230
   16.755    3.6124
   16.890    3.7072
   17.025    3.7072
   17.160    3.7757
   17.295    3.7125
   17.430    3.7599
   17.565    3.9179
   17.700    4.3918
   17.835    4.4866
   17.970    4.7762
   18.105    4.3444
   18.240    3.9758
   18.375    3.7967
   18.510    3.7177
   18.645    3.9021
   18.780    3.9442
   18.915    3.8441
   19.050    3.6282
   19.185    3.7599
   19.320    3.8336
   19.455    3.7441
   19.590    3.7862
   19.725    3.6651
   19.860    3.7546
   19.995    3.8652
   20.130    3.6440
   20.265    3.7809
   20.400    3.9442
   20.535    3.8020
   20.670    3.9284
   20.805    3.7125
   20.940    4.0179
   21.075    3.8863
   21.210    4.0969
   21.345    3.7388
   21.480    3.8073
   21.615    3.8810
   21.750    3.7177
   21.885    3.7967
   22.020    3.8231
   22.155    3.9494
   22.290    3.9494
   22.425    4.0179
   22.560    3.8441
   22.695    3.6651
   22.830    4.0074
   22.965    3.8599
   23.100    3.8599
   23.235    3.9968
   23.370    3.8968
   23.505    3.7125
   23.640    3.7599
   23.775    3.8020
   23.910    3.8336
   24.045    3.8915
   24.180    3.9073
   24.315    3.7757
   24.450    3.6967
   24.585    3.8336
   24.720    3.7125
   24.855    3.6862
   24.990    3.6967
   25.125    3.4492
   25.260    3.6756
   25.395    3.6335
   25.530    3.6440
   25.665    3.5282
   25.800    3.5598
   25.935    3.6704
   26.070    3.4702
   26.205    3.3597
   26.340    3.3175
   26.475    3.5334
   26.610    3.3281
   26.745    3.4808
   26.880    3.4018
   27.015    3.6335
   27.150    3.4913
   27.285    3.2859
   27.420    3.2385
   27.555    3.2965
   27.690    3.6651
   27.825    3.1648
   27.960    3.2754
   28.095    3.3913
   28.230    3.4597
   28.365    3.0964
   28.500    3.1964
   28.635    3.2807
   28.770    3.1596
   28.905    3.2227
   29.040    3.2385
   29.175    3.1543
   29.310    3.2912
   29.445    2.9753
   29.580    3.1543
   29.715    3.1016
   29.850    3.0753
   29.985    3.0753
   30.120    3.0121
   30.255    3.1438
   30.390    3.2965
   30.525    3.2701
   30.660    2.9753
   30.795    3.0332
   30.930    2.8805
   31.065    2.7699
   31.200    2.9858
   31.335    2.6698
   31.470    3.0595
   31.605    2.9068
   31.740    2.7804
   31.875    2.8699
   32.010    2.7541
   32.145    2.6382
   32.280    2.8120
   32.415    2.6804
   32.550    2.7488
   32.685    2.8963
   32.820    2.6856
   32.955    2.7751
   33.090    2.5487
   33.225    2.5803
   33.360    2.5224
   33.495    2.6751
   33.630    2.5013
   33.765    2.5961
   33.900    2.6066
   34.035    2.4118
   34.170    2.5750
   34.305    2.3802
   34.440    2.4592
   34.575    2.4645
   34.710    2.3539
   34.845    2.4013
   34.980    2.4171
   35.115    2.2696
   35.250    2.3749
   35.385    2.2433
   35.520    2.2170
   35.655    2.2117
   35.790    2.3328
   35.925    2.1854
   36.060    2.0642
   36.195    2.0748
   36.330    2.2222
   36.465    2.2012
   36.600    2.2486
   36.735    2.1748
   36.870    2.2801
   37.005    2.1748
   37.140    2.0379
   37.275    1.9168
   37.410    2.1906
   37.545    2.1748
   37.680    2.0958
   37.815    2.0221
   37.950    2.1643
   38.085    2.0484
   38.220    2.2801
   38.355    1.9379
   38.490    1.8483
   38.625    2.0958
   38.760    2.2801
   38.895    1.9905
   39.030    1.9273
   39.165    1.9168
   39.300    2.0169
   39.435    1.9589
   39.570    1.9589
   39.705    2.0116
   39.840    2.0484
   39.975    2.0432
   39.990    2.0274