File: data/MOCOF-1/PXRD/PXRD_KE-122_Cu-Ka1_capillary-1mm_5s-deg.xyd
    1.500   15.3449
    1.635   14.2917
    1.770   13.6809
    1.905   13.0806
    2.040   12.4065
    2.175   11.9115
    2.310   11.0690
    2.445   10.9321
    2.580   10.4792
    2.715   10.1948
    2.850    9.7525
    2.985    9.5840
    3.120    9.2470
    3.255    9.1206
    3.390    8.8573
    3.525    8.5308
    3.660    8.5940
    3.795    7.9200
    3.930    7.7199
    4.065    7.6567
    4.200    7.3091
    4.335    6.9510
    4.470    7.3934
    4.605    7.0669
    4.740    6.8352
    4.875    6.8141
    5.010    6.9510
    5.145    6.9089
    5.280    6.4666
    5.415    6.2243
    5.550    6.5403
    5.685    6.0032
    5.820    6.1717
    5.955    6.4666
    6.090    6.6245
    6.225    6.4244
    6.360    6.7509
    6.495    6.5824
    6.630    6.3718
    6.765    6.4876
    6.900    6.2454
    7.035    5.9505
    7.170    6.3296
    7.305    6.7193
    7.440    6.2559
    7.575    6.4350
    7.710    6.5508
    7.845    6.5824
    7.980    6.5613
    8.115    6.5403
    8.250    6.5508
    8.385    6.7299
    8.520    6.8878
    8.655    5.9400
    8.790    6.7825
    8.925    6.3612
    9.060    6.4666
    9.195    7.0248
    9.330    6.6245
    9.465    6.6351
    9.600    6.5824
    9.735    6.6245
    9.870    7.0458
   10.005    6.4771
   10.140    6.6140
   10.275    6.5508
   10.410    6.4666
   10.545    6.6983
   10.680    6.2138
   10.815    6.8141
   10.950    6.0348
   11.085    6.0664
   11.220    6.2981
   11.355    6.3823
   11.490    6.2138
   11.625    5.9294
   11.760    6.3296
   11.895    5.8978
   12.030    5.7188
   12.165    5.9926
   12.300    6.0874
   12.435    6.0032
   12.570    6.1611
   12.705    5.7293
   12.840    5.8452
   12.975    5.5714
   13.110    5.8452
   13.245    5.6135
   13.380    5.4344
   13.515    5.8873
   13.650    6.1611
   13.785    5.5082
   13.920    5.4134
   14.055    5.7715
   14.190    5.6767
   14.325    5.6556
   14.460    5.8452
   14.595    5.4871
   14.730    5.4976
   14.865    5.9084
   15.000    5.5503
   15.135    5.6451
   15.270    5.7609
   15.405    5.4555
   15.540    5.7293
   15.675    5.8136
   15.810    5.6240
   15.945    5.8873
   16.080    6.0979
   16.215    6.0242
   16.350    5.8347
   16.485    5.9610
   16.620    5.5292
   16.755    5.8347
   16.890    6.0348
   17.025    6.1401
   17.160    6.0874
   17.295    5.8978
   17.430    5.8662
   17.565    5.8873
   17.700    5.9400
   17.835    5.9400
   17.970    5.8347
   18.105    5.5292
   18.240    6.2243
   18.375    6.0769
   18.510    5.8452
   18.645    6.0032
   18.780    6.2349
   18.915    5.9294
   19.050    5.7504
   19.185    5.7820
   19.320    6.2138
   19.455    5.6451
   19.590    6.2138
   19.725    5.9821
   19.860    5.7399
   19.995    5.5714
   20.130    5.8978
   20.265    6.1822
   20.400    5.9926
   20.535    6.1190
   20.670    5.8557
   20.805    5.4555
   20.940    6.3191
   21.075    5.8452
   21.210    6.1295
   21.345    5.8136
   21.480    6.0874
   21.615    6.0874
   21.750    6.2349
   21.885    6.1085
   22.020    5.9294
   22.155    6.1506
   22.290    6.0664
   22.425    5.6872
   22.560    6.1190
   22.695    6.3928
   22.830    6.1611
   22.965    5.9505
   23.100    5.9294
   23.235    5.9821
   23.370    6.5192
   23.505    5.7504
   23.640    5.8557
   23.775    6.0137
   23.910    5.7399
   24.045    5.8136
   24.180    5.8978
   24.315    5.7293
   24.450    5.9400
   24.585    5.8662
   24.720    5.9084
   24.855    5.9716
   24.990    6.0769
   25.125    5.7609
   25.260    5.6977
   25.395    5.6345
   25.530    5.4344
   25.665    5.4976
   25.800    6.1927
   25.935    5.3607
   26.070    5.8452
   26.205    5.3712
   26.340    5.8768
   26.475    5.6240
   26.610    5.2659
   26.745    5.4239
   26.880    5.2449
   27.015    5.1922
   27.150    5.4871
   27.285    5.5398
   27.420    5.4450
   27.555    5.4871
   27.690    4.9816
   27.825    5.3712
   27.960    5.7293
   28.095    5.4660
   28.230    5.2027
   28.365    5.2765
   28.500    5.0132
   28.635    5.1711
   28.770    5.2133
   28.905    4.9605
   29.040    4.8763
   29.175    5.0869
   29.310    5.1711
   29.445    5.2449
   29.580    4.9289
   29.715    5.2449
   29.850    4.9921
   29.985    4.8025
   30.120    5.2343
   30.255    4.9500
   30.390    4.9500
   30.525    5.1501
   30.660    4.9605
   30.795    4.8025
   30.930    4.8025
   31.065    4.7815
   31.200    4.4866
   31.335    4.9078
   31.470    5.1185
   31.605    4.6972
   31.740    4.6130
   31.875    4.7604
   32.010    4.9184
   32.145    4.9078
   32.280    4.3813
   32.415    4.5182
   32.550    4.5182
   32.685    4.5498
   32.820    4.3707
   32.955    4.6445
   33.090    4.4760
   33.225    4.4550
   33.360    4.3497
   33.495    4.3813
   33.630    4.1601
   33.765    4.5076
   33.900    4.2338
   34.035    4.7288
   34.170    4.1601
   34.305    4.4760
   34.440    4.4023
   34.575    4.2443
   34.710    4.5392
   34.845    4.2443
   34.980    4.2127
   35.115    3.9179
   35.250    3.9705
   35.385    4.4550
   35.520    4.0864
   35.655    4.1706
   35.790    4.0548
   35.925    4.0548
   36.060    3.9284
   36.195    4.0758
   36.330    4.0653
   36.465    3.8441
   36.600    3.8441
   36.735    3.9810
   36.870    3.8231
   37.005    3.9073
   37.140    4.1811
   37.275    3.7915
   37.410    3.8441
   37.545    4.0021
   37.680    3.6651
   37.815    4.2549
   37.950    3.8441
   38.085    3.8968
   38.220    3.8757
   38.355    3.9600
   38.490    3.9600
   38.625    3.9810
   38.760    3.9284
   38.895    3.8863
   39.030    3.9810
   39.165    4.2443
   39.300    3.8231
   39.435    3.7388
   39.570    3.7599
   39.705    4.0232
   39.840    3.7704
   39.975    3.9916
   39.990    3.9810