File: data/MOCOF-1/PXRD/PXRD_KE-215_Co-Ka1_film-3mm_5s-deg.xyd
    1.500    3.4564
    1.635    2.5575
    1.770    2.7180
    1.905    2.2793
    2.040    2.3328
    2.175    2.0439
    2.310    1.9797
    2.445    1.8299
    2.580    1.7657
    2.715    1.7764
    2.850    1.4767
    2.985    1.6158
    3.120    1.3590
    3.255    1.4981
    3.390    1.6051
    3.525    1.5623
    3.660    1.5409
    3.795    1.2520
    3.930    1.3804
    4.065    1.3483
    4.200    1.4232
    4.335    1.3376
    4.470    1.6051
    4.605    1.4339
    4.740    1.4446
    4.875    1.6051
    5.010    1.3804
    5.145    1.4125
    5.280    1.4446
    5.415    1.5088
    5.550    1.4232
    5.685    1.6372
    5.820    1.6693
    5.955    1.7014
    6.090    1.5837
    6.225    1.8085
    6.360    1.8834
    6.495    2.0760
    6.630    1.8513
    6.765    1.8406
    6.900    1.6372
    7.035    1.6051
    7.170    1.4767
    7.305    1.4232
    7.440    1.3376
    7.575    1.4232
    7.710    1.2092
    7.845    1.2627
    7.980    1.2199
    8.115    1.0594
    8.250    1.1236
    8.385    1.1129
    8.520    1.2948
    8.655    1.1022
    8.790    1.1557
    8.925    1.0915
    9.060    0.9952
    9.195    0.9203
    9.330    1.0487
    9.465    0.8882
    9.600    0.8668
    9.735    0.8775
    9.870    0.8240
   10.005    1.0487
   10.140    0.7705
   10.275    0.8240
   10.410    0.7705
   10.545    0.7919
   10.680    0.7598
   10.815    0.9845
   10.950    0.8989
   11.085    0.8561
   11.220    0.7491
   11.355    0.9952
   11.490    0.8454
   11.625    1.0701
   11.760    0.9417
   11.895    0.8775
   12.030    0.7170
   12.165    0.8347
   12.300    0.9631
   12.435    0.8775
   12.570    0.8668
   12.705    1.0166
   12.840    1.0059
   12.975    0.9417
   13.110    1.1022
   13.245    0.8989
   13.380    0.9631
   13.515    0.7705
   13.650    0.9417
   13.785    0.9203
   13.920    0.8133
   14.055    0.9203
   14.190    0.9631
   14.325    0.9524
   14.460    0.9845
   14.595    0.8668
   14.730    0.9096
   14.865    0.8347
   15.000    0.8668
   15.135    0.7384
   15.270    0.8133
   15.405    0.8133
   15.540    0.9952
   15.675    0.8133
   15.810    0.8775
   15.945    0.7919
   16.080    0.8882
   16.215    0.8989
   16.350    0.8989
   16.485    0.8668
   16.620    0.9952
   16.755    0.8989
   16.890    0.8240
   17.025    0.8561
   17.160    0.8989
   17.295    0.8668
   17.430    0.7384
   17.565    0.9203
   17.700    0.8347
   17.835    0.8026
   17.970    0.6956
   18.105    0.9203
   18.240    0.9631
   18.375    0.7919
   18.510    0.7170
   18.645    0.8882
   18.780    0.8561
   18.915    0.8026
   19.050    0.9096
   19.185    0.8561
   19.320    0.8347
   19.455    0.8454
   19.590    0.7491
   19.725    0.8454
   19.860    0.8561
   19.995    0.7598
   20.130    0.8026
   20.265    0.7812
   20.400    0.7812
   20.535    0.8347
   20.670    0.7919
   20.805    0.8026
   20.940    0.7812
   21.075    0.8026
   21.210    0.7170
   21.345    0.7491
   21.480    0.7277
   21.615    0.7598
   21.750    0.7919
   21.885    0.7384
   22.020    0.7170
   22.155    0.7170
   22.290    0.7812
   22.425    0.6635
   22.560    0.6207
   22.695    0.7812
   22.830    0.8026
   22.965    0.8775
   23.100    0.6742
   23.235    0.6956
   23.370    0.6528
   23.505    0.7491
   23.640    0.8026
   23.775    0.5886
   23.910    0.6956
   24.045    0.7812
   24.180    0.7170
   24.315    0.6528
   24.450    0.7170
   24.585    0.6314
   24.720    0.7491
   24.855    0.6635
   24.990    0.5993
   25.125    0.5886
   25.260    0.6207
   25.395    0.7384
   25.530    0.6635
   25.665    0.5886
   25.800    0.7277
   25.935    0.5457
   26.070    0.5671
   26.205    0.5993
   26.340    0.6207
   26.475    0.6635
   26.610    0.5671
   26.745    0.5886
   26.880    0.5993
   27.015    0.7063
   27.150    0.6528
   27.285    0.5886
   27.420    0.6849
   27.555    0.5564
   27.690    0.5029
   27.825    0.5136
   27.960    0.5564
   28.095    0.6635
   28.230    0.5029
   28.365    0.5457
   28.500    0.5778
   28.635    0.5886
   28.770    0.5671
   28.905    0.6314
   29.040    0.4815
   29.175    0.5029
   29.310    0.5136
   29.445    0.5564
   29.580    0.6742
   29.715    0.5886
   29.850    0.4280
   29.985    0.4815
   30.120    0.5671
   30.255    0.4922
   30.390    0.6528
   30.525    0.4708
   30.660    0.5564
   30.795    0.4708
   30.930    0.4387
   31.065    0.4708
   31.200    0.5671
   31.335    0.4922
   31.470    0.4173
   31.605    0.5457
   31.740    0.3959
   31.875    0.5243
   32.010    0.5029
   32.145    0.4387
   32.280    0.4387
   32.415    0.4387
   32.550    0.3959
   32.685    0.4708
   32.820    0.4173
   32.955    0.3424
   33.090    0.4708
   33.225    0.4708
   33.360    0.3959
   33.495    0.5029
   33.630    0.4387
   33.765    0.7812
   33.900    0.3531
   34.035    0.4601
   34.170    0.5564
   34.305    0.4280
   34.440    0.3317
   34.575    0.4173
   34.710    0.3745
   34.845    0.3531
   34.980    0.3638
   35.115    0.3638
   35.250    0.4280
   35.385    0.2996
   35.520    0.3317
   35.655    0.3317
   35.790    0.3103
   35.925    0.3317
   36.060    0.4387
   36.195    0.3424
   36.330    0.3531
   36.465    0.3210
   36.600    0.3317
   36.735    0.3745
   36.870    0.3531
   37.005    0.2782
   37.140    0.3103
   37.275    0.3424
   37.410    0.4922
   37.545    0.4387
   37.680    0.2996
   37.815    0.2461
   37.950    0.3424
   38.085    0.2247
   38.220    0.2889
   38.355    0.2996
   38.490    0.3103
   38.625    0.3424
   38.760    0.2889
   38.895    0.2675
   39.030    0.2568
   39.165    0.2889
   39.300    0.2996
   39.435    0.2889
   39.570    0.2889
   39.705    0.2675
   39.840    0.2247
   39.975    0.2247
   39.990    0.2461