File: data/MOCOF-1/PXRD/PXRD_KE-119-2dry_Cu-Ka1_capillary-1mm_5s-deg.xyd
    1.500   23.9916
    1.635   21.6640
    1.770   19.7156
    1.905   17.7146
    2.040   15.6714
    2.175   14.8078
    2.310   14.3233
    2.445   14.1548
    2.580   13.0700
    2.715   13.4387
    2.850   13.3228
    2.985   13.4597
    3.120   14.5445
    3.255   16.6719
    3.390   17.8831
    3.525   23.1490
    3.660   29.9315
    3.795   47.5408
    3.930   39.4102
    4.065   12.8383
    4.200    9.8894
    4.335    9.7314
    4.470    9.5629
    4.605    8.9942
    4.740    9.2048
    4.875    9.9631
    5.010   10.8268
    5.145   11.5850
    5.280   14.3339
    5.415   20.5266
    5.550   18.8099
    5.685    9.1522
    5.820    8.5097
    5.955    8.2780
    6.090    8.2780
    6.225    8.9837
    6.360    8.9626
    6.495    9.2048
    6.630   10.8162
    6.765   13.1016
    6.900    8.4150
    7.035    8.1938
    7.170    8.5940
    7.305    8.8046
    7.440    8.8468
    7.575    9.4365
    7.710   10.4687
    7.845   11.0374
    7.980    8.8257
    8.115    8.5308
    8.250    8.7520
    8.385    8.9205
    8.520    8.8889
    8.655    9.1311
    8.790    8.9731
    8.925    8.8257
    9.060    8.8678
    9.195    9.3839
    9.330    9.5629
    9.465   12.9963
    9.600   13.1964
    9.735    8.9942
    9.870    9.2364
   10.005    8.4887
   10.140    8.7625
   10.275   10.4581
   10.410    9.2154
   10.545    8.3728
   10.680    8.5308
   10.815    8.6993
   10.950    9.5840
   11.085   10.1843
   11.220    8.9100
   11.355    8.5097
   11.490    9.1311
   11.625    9.5103
   11.760   10.4792
   11.895    7.8778
   12.030    8.4781
   12.165    8.0042
   12.300    7.9937
   12.435    8.0253
   12.570    7.6356
   12.705    7.8252
   12.840    8.1517
   12.975    9.4155
   13.110    7.8989
   13.245    8.1095
   13.380    7.4250
   13.515    7.9200
   13.650    8.0463
   13.785    7.7936
   13.920    8.1938
   14.055    8.9100
   14.190    8.1938
   14.325    7.3723
   14.460    7.6145
   14.595    7.5619
   14.730    7.4776
   14.865    7.6145
   15.000    7.6461
   15.135    7.9200
   15.270    7.7620
   15.405    7.9200
   15.540    7.5829
   15.675    7.6777
   15.810    8.0569
   15.945    7.4566
   16.080    8.4992
   16.215    7.9937
   16.350    8.3307
   16.485    7.9200
   16.620    8.4044
   16.755    7.8568
   16.890    7.8568
   17.025    8.3412
   17.160    7.9937
   17.295    7.8673
   17.430    8.0990
   17.565    7.6988
   17.700    8.1306
   17.835    7.7304
   17.970    7.8462
   18.105    7.7936
   18.240    7.8673
   18.375    8.0463
   18.510    8.0990
   18.645    7.7725
   18.780    7.8989
   18.915    7.8673
   19.050    8.1517
   19.185    8.1622
   19.320    7.6988
   19.455    8.2464
   19.590    8.0147
   19.725    8.2464
   19.860    7.4355
   19.995    7.6883
   20.130    7.7304
   20.265    8.0885
   20.400    8.5729
   20.535    8.0042
   20.670    7.8884
   20.805    7.6883
   20.940    8.0463
   21.075    7.8462
   21.210    8.1938
   21.345    7.9410
   21.480    7.6883
   21.615    8.2043
   21.750    8.4571
   21.885    8.7309
   22.020    8.6256
   22.155    8.2043
   22.290    8.5097
   22.425    8.3939
   22.560    9.2891
   22.695    8.8678
   22.830    8.6361
   22.965    8.7836
   23.100    8.3412
   23.235    7.8568
   23.370    8.0569
   23.505    8.4992
   23.640    7.8146
   23.775    8.1411
   23.910    8.2991
   24.045    8.0779
   24.180    7.7093
   24.315    7.4671
   24.450    7.6777
   24.585    7.8041
   24.720    7.6883
   24.855    7.6672
   24.990    7.8989
   25.125    7.7514
   25.260    7.9621
   25.395    7.5513
   25.530    7.6040
   25.665    7.9200
   25.800    8.0463
   25.935    7.7409
   26.070    7.5513
   26.205    7.6040
   26.340    7.8884
   26.475    7.7304
   26.610    7.7514
   26.745    7.8357
   26.880    7.7199
   27.015    7.6988
   27.150    7.0037
   27.285    7.5513
   27.420    7.4671
   27.555    7.4776
   27.690    7.9516
   27.825    7.1301
   27.960    7.8357
   28.095    7.6567
   28.230    7.4776
   28.365    7.7304
   28.500    7.2670
   28.635    7.3723
   28.770    6.9826
   28.905    7.5619
   29.040    7.6567
   29.175    7.5197
   29.310    7.1406
   29.445    6.7930
   29.580    6.9089
   29.715    7.3934
   29.850    6.9616
   29.985    7.2249
   30.120    6.6667
   30.255    7.2986
   30.390    6.6667
   30.525    6.9300
   30.660    6.5719
   30.795    6.8352
   30.930    6.9616
   31.065    6.7088
   31.200    6.6140
   31.335    6.5824
   31.470    6.8878
   31.605    6.7615
   31.740    7.0353
   31.875    7.1722
   32.010    7.6461
   32.145    7.7620
   32.280    6.7509
   32.415    6.6877
   32.550    6.9826
   32.685    6.7615
   32.820    6.5929
   32.955    7.1301
   33.090    6.5613
   33.225    6.4455
   33.360    6.4455
   33.495    6.4034
   33.630    6.7720
   33.765    6.4876
   33.900    7.0037
   34.035    6.8562
   34.170    6.4771
   34.305    6.4350
   34.440    6.3296
   34.575    6.2665
   34.710    6.3823
   34.845    6.6983
   34.980    6.3296
   35.115    6.4244
   35.250    6.2138
   35.385    6.1611
   35.520    5.9716
   35.655    5.8662
   35.790    6.2665
   35.925    6.4666
   36.060    5.9189
   36.195    6.5929
   36.330    5.9189
   36.465    6.2770
   36.600    6.0979
   36.735    6.3296
   36.870    5.8136
   37.005    5.5187
   37.140    5.9926
   37.275    6.1927
   37.410    6.0558
   37.545    6.0769
   37.680    6.2665
   37.815    5.9505
   37.950    6.4350
   38.085    6.0137
   38.220    5.9084
   38.355    6.0874
   38.490    6.1190
   38.625    6.2981
   38.760    6.1611
   38.895    6.1611
   39.030    6.2770
   39.165    5.8978
   39.300    6.1717
   39.435    5.8873
   39.570    6.0664
   39.705    5.7820
   39.840    5.6661
   39.975    5.8136
   39.990    6.0453