File: data/MOCOF-1/PXRD/PXRD_KE-091_Cu-Ka1_capillary-1mm_5s-deg.xyd
    1.500   31.5219
    1.635   28.1095
    1.770   22.9068
    1.905   21.4534
    2.040   19.0416
    2.175   17.2091
    2.310   16.3665
    2.445   16.1453
    2.580   16.0084
    2.715   16.1032
    2.850   17.1775
    2.985   20.0211
    3.120   22.7383
    3.255   28.8678
    3.390   34.8183
    3.525   29.2996
    3.660   20.2422
    3.795   15.7767
    3.930   15.3449
    4.065   18.3149
    4.200   20.2738
    4.335   17.7672
    4.470   12.8805
    4.605    8.5413
    4.740    7.2459
    4.875    6.4560
    5.010    5.8978
    5.145    5.4660
    5.280    5.5398
    5.415    5.2449
    5.550    5.2027
    5.685    5.0132
    5.820    4.9078
    5.955    4.4760
    6.090    4.7183
    6.225    4.6656
    6.360    4.9605
    6.495    5.4766
    6.630    5.9505
    6.765    6.8668
    6.900    8.4150
    7.035    7.7304
    7.170    6.0032
    7.305    4.9710
    7.440    4.8236
    7.575    4.5287
    7.710    4.6656
    7.845    4.5708
    7.980    4.8763
    8.115    4.5392
    8.250    4.9500
    8.385    5.6661
    8.520    6.0137
    8.655    6.0769
    8.790    5.6767
    8.925    5.3712
    9.060    4.9500
    9.195    4.2443
    9.330    4.0653
    9.465    4.0758
    9.600    4.2443
    9.735    3.8547
    9.870    4.2654
   10.005    3.8231
   10.140    3.9916
   10.275    4.0653
   10.410    3.9494
   10.545    4.3707
   10.680    3.6756
   10.815    3.8336
   10.950    3.8547
   11.085    3.6335
   11.220    4.2022
   11.355    4.0864
   11.490    3.7493
   11.625    3.7809
   11.760    3.9284
   11.895    3.8125
   12.030    4.3286
   12.165    3.9284
   12.300    3.5914
   12.435    3.8231
   12.570    3.9179
   12.705    3.7915
   12.840    3.9600
   12.975    3.7704
   13.110    3.8652
   13.245    4.3707
   13.380    3.9389
   13.515    3.8547
   13.650    3.9705
   13.785    3.6967
   13.920    3.7704
   14.055    3.8125
   14.190    3.9073
   14.325    3.6230
   14.460    3.7072
   14.595    3.4544
   14.730    3.6967
   14.865    3.9916
   15.000    3.5808
   15.135    3.4860
   15.270    3.6546
   15.405    3.5387
   15.540    3.8547
   15.675    3.8757
   15.810    3.4018
   15.945    3.9073
   16.080    3.5703
   16.215    3.6756
   16.350    3.6019
   16.485    3.1596
   16.620    3.6335
   16.755    3.5387
   16.890    3.3597
   17.025    3.8652
   17.160    3.6756
   17.295    3.5492
   17.430    3.9810
   17.565    3.9705
   17.700    3.4860
   17.835    4.1811
   17.970    3.6335
   18.105    3.8020
   18.240    3.8968
   18.375    3.4439
   18.510    3.9073
   18.645    4.1074
   18.780    3.8863
   18.915    3.9600
   19.050    3.9600
   19.185    3.9494
   19.320    3.5914
   19.455    3.9389
   19.590    4.0758
   19.725    3.8863
   19.860    4.2022
   19.995    3.9389
   20.130    4.1074
   20.265    4.0864
   20.400    4.3602
   20.535    4.0864
   20.670    4.6761
   20.805    4.2549
   20.940    4.4971
   21.075    4.4550
   21.210    4.3391
   21.345    4.2443
   21.480    4.1917
   21.615    4.5076
   21.750    3.9073
   21.885    4.2022
   22.020    4.3813
   22.155    4.2443
   22.290    4.5708
   22.425    4.0864
   22.560    4.1074
   22.695    4.3181
   22.830    4.3602
   22.965    4.2865
   23.100    4.1706
   23.235    4.2970
   23.370    3.8020
   23.505    4.1706
   23.640    3.9073
   23.775    3.9916
   23.910    4.1496
   24.045    4.0548
   24.180    3.7177
   24.315    4.3813
   24.450    4.1285
   24.585    4.1496
   24.720    4.0969
   24.855    4.1390
   24.990    4.1601
   25.125    4.2970
   25.260    3.6967
   25.395    3.8757
   25.530    3.9705
   25.665    3.8863
   25.800    3.8968
   25.935    3.8336
   26.070    3.7915
   26.205    3.7388
   26.340    3.6862
   26.475    3.8652
   26.610    4.0653
   26.745    3.4544
   26.880    3.6862
   27.015    3.4966
   27.150    4.0548
   27.285    3.7704
   27.420    3.7283
   27.555    3.7599
   27.690    3.6546
   27.825    3.4544
   27.960    3.6230
   28.095    3.7072
   28.230    3.8336
   28.365    3.7915
   28.500    3.7915
   28.635    3.4860
   28.770    3.8652
   28.905    3.5387
   29.040    3.5387
   29.175    3.2543
   29.310    3.3702
   29.445    3.4966
   29.580    3.2333
   29.715    3.3175
   29.850    3.7177
   29.985    3.2333
   30.120    3.2438
   30.255    3.3386
   30.390    3.4123
   30.525    3.2017
   30.660    3.3175
   30.795    2.9910
   30.930    3.1280
   31.065    3.4123
   31.200    3.0542
   31.335    3.3702
   31.470    3.3597
   31.605    3.6230
   31.740    3.2438
   31.875    3.0437
   32.010    3.1701
   32.145    3.2122
   32.280    3.0332
   32.415    3.3175
   32.550    3.0858
   32.685    2.9173
   32.820    2.8436
   32.955    2.9805
   33.090    3.0332
   33.225    2.7699
   33.360    2.9279
   33.495    2.8647
   33.630    3.1490
   33.765    2.7488
   33.900    2.8015
   34.035    2.5382
   34.170    2.8331
   34.305    2.5276
   34.440    2.5592
   34.575    2.4961
   34.710    2.4855
   34.845    2.3381
   34.980    2.5066
   35.115    2.4961
   35.250    2.7383
   35.385    2.5066
   35.520    2.5276
   35.655    2.5066
   35.790    2.6435
   35.925    2.3907
   36.060    2.6646
   36.195    2.5066
   36.330    2.5803
   36.465    2.7909
   36.600    2.2538
   36.735    2.6119
   36.870    2.5066
   37.005    2.5066
   37.140    2.5592
   37.275    2.2854
   37.410    2.4329
   37.545    2.3802
   37.680    2.3275
   37.815    1.9800
   37.950    2.3275
   38.085    2.0958
   38.220    2.3170
   38.355    2.2433
   38.490    2.3275
   38.625    2.0853
   38.760    2.3907
   38.895    2.2117
   39.030    2.2433
   39.165    2.1485
   39.300    2.5066
   39.435    2.0748
   39.570    2.3381
   39.705    2.2749
   39.840    2.4329
   39.975    2.1169
   39.990    1.9905