File: data/MOCOF-1/PXRD/PXRD_KE-183_Cu-Ka1_capillary-1mm_5s-deg.xyd
    1.500   16.2928
    1.635   13.4913
    1.770   11.0585
    1.905    9.8262
    2.040    8.7204
    2.175    7.9305
    2.310    8.0463
    2.445    7.6777
    2.580    8.0885
    2.715    9.4997
    2.850   11.0900
    2.985   16.2296
    3.120   22.0853
    3.255   36.7878
    3.390   69.6261
    3.525   64.5287
    3.660   23.2754
    3.795   23.7704
    3.930   30.2264
    4.065   31.7957
    4.200   25.3397
    4.335   16.7773
    4.470    9.9842
    4.605    7.0563
    4.740    5.0026
    4.875    4.1917
    5.010    4.0232
    5.145    3.5282
    5.280    3.5914
    5.415    3.6546
    5.550    2.8857
    5.685    3.3913
    5.820    3.1912
    5.955    2.8647
    6.090    3.6019
    6.225    3.2438
    6.360    3.2122
    6.495    3.1385
    6.630    4.0442
    6.765    5.5398
    6.900   10.0053
    7.035    7.8989
    7.170    3.8863
    7.305    3.7388
    7.440    3.3913
    7.575    3.3491
    7.710    3.6335
    7.845    4.1390
    7.980    4.5392
    8.115    4.8447
    8.250    4.8341
    8.385    5.0026
    8.520    5.0342
    8.655    4.4444
    8.790    3.8547
    8.925    3.2965
    9.060    3.1806
    9.195    2.9910
    9.330    2.7909
    9.465    2.9173
    9.600    2.7804
    9.735    2.7804
    9.870    2.5908
   10.005    2.7593
   10.140    2.8647
   10.275    2.8015
   10.410    3.0648
   10.545    3.2227
   10.680    2.6540
   10.815    2.7593
   10.950    2.6435
   11.085    2.4329
   11.220    2.9384
   11.355    2.5382
   11.490    2.8752
   11.625    2.5803
   11.760    2.8015
   11.895    2.7909
   12.030    2.6751
   12.165    2.9595
   12.300    2.9384
   12.435    2.8331
   12.570    3.3281
   12.705    3.4018
   12.840    3.0332
   12.975    2.9700
   13.110    2.9595
   13.245    2.7278
   13.380    2.8015
   13.515    2.9173
   13.650    2.8752
   13.785    2.6014
   13.920    2.7172
   14.055    2.8541
   14.190    2.9068
   14.325    2.8120
   14.460    2.7699
   14.595    2.4434
   14.730    2.6330
   14.865    2.2433
   15.000    2.3591
   15.135    2.6330
   15.270    2.6646
   15.405    2.7172
   15.540    2.8015
   15.675    2.8752
   15.810    2.9173
   15.945    2.8331
   16.080    2.6856
   16.215    2.5908
   16.350    2.6224
   16.485    2.8331
   16.620    2.6224
   16.755    2.7804
   16.890    2.5276
   17.025    2.8647
   17.160    2.8436
   17.295    2.6646
   17.430    2.6646
   17.565    2.5908
   17.700    2.7067
   17.835    2.8331
   17.970    3.0226
   18.105    2.9384
   18.240    2.5908
   18.375    2.6540
   18.510    2.6330
   18.645    2.6330
   18.780    2.4013
   18.915    2.6435
   19.050    2.6014
   19.185    2.6014
   19.320    2.8331
   19.455    2.6014
   19.590    3.0858
   19.725    2.6962
   19.860    2.9279
   19.995    2.8857
   20.130    2.9279
   20.265    2.7804
   20.400    2.9068
   20.535    2.6962
   20.670    3.1701
   20.805    3.0964
   20.940    2.8225
   21.075    2.9805
   21.210    2.8120
   21.345    2.6014
   21.480    2.7383
   21.615    3.0542
   21.750    3.2122
   21.885    2.8120
   22.020    2.9279
   22.155    2.8963
   22.290    2.9489
   22.425    2.8225
   22.560    3.0753
   22.695    2.6751
   22.830    2.8857
   22.965    3.1174
   23.100    2.8857
   23.235    2.9068
   23.370    2.8647
   23.505    2.8963
   23.640    2.9384
   23.775    2.9173
   23.910    2.8963
   24.045    2.8541
   24.180    2.8436
   24.315    2.6646
   24.450    2.7383
   24.585    2.7067
   24.720    2.7593
   24.855    2.6856
   24.990    2.4855
   25.125    2.5276
   25.260    2.4645
   25.395    2.6646
   25.530    2.7699
   25.665    2.4329
   25.800    2.5803
   25.935    2.6435
   26.070    2.6435
   26.205    2.1696
   26.340    2.5066
   26.475    2.8015
   26.610    2.6435
   26.745    2.5803
   26.880    2.2328
   27.015    2.5382
   27.150    2.2328
   27.285    2.2012
   27.420    2.3907
   27.555    2.5066
   27.690    2.4750
   27.825    2.4855
   27.960    2.4329
   28.095    2.3697
   28.230    2.5908
   28.365    2.5171
   28.500    2.4013
   28.635    2.3065
   28.770    2.1169
   28.905    2.1906
   29.040    2.2117
   29.175    2.1801
   29.310    2.1274
   29.445    2.4013
   29.580    2.3591
   29.715    2.2643
   29.850    2.3065
   29.985    2.4961
   30.120    2.4013
   30.255    2.0432
   30.390    2.1801
   30.525    2.1380
   30.660    2.2117
   30.795    2.2538
   30.930    2.1696
   31.065    2.2117
   31.200    2.3907
   31.335    2.2433
   31.470    2.0958
   31.605    2.2117
   31.740    2.2854
   31.875    2.2854
   32.010    2.0642
   32.145    2.1590
   32.280    2.3170
   32.415    1.9695
   32.550    1.9063
   32.685    2.2222
   32.820    2.1380
   32.955    2.0958
   33.090    1.9905
   33.225    1.9800
   33.360    1.8957
   33.495    1.9695
   33.630    2.0432
   33.765    2.0642
   33.900    2.1590
   34.035    2.0011
   34.170    1.9905
   34.305    1.9484
   34.440    1.9484
   34.575    1.9484
   34.710    1.8325
   34.845    1.6956
   34.980    2.0116
   35.115    1.7483
   35.250    1.8747
   35.385    1.8536
   35.520    1.7588
   35.655    1.8852
   35.790    1.8220
   35.925    1.8115
   36.060    1.9379
   36.195    1.8852
   36.330    1.5482
   36.465    1.7378
   36.600    1.6640
   36.735    1.7062
   36.870    1.8536
   37.005    1.7588
   37.140    1.7694
   37.275    1.7694
   37.410    1.8325
   37.545    1.8220
   37.680    1.6114
   37.815    1.8325
   37.950    1.6956
   38.085    1.7694
   38.220    1.7483
   38.355    1.7272
   38.490    1.7167
   38.625    1.8009
   38.760    1.5798
   38.895    1.7062
   39.030    1.7588
   39.165    1.7588
   39.300    1.7904
   39.435    1.7378
   39.570    1.6114
   39.705    1.3586
   39.840    1.8220
   39.975    1.8220
   39.990    1.7799