File: data/MOCOF-1/PXRD/PXRD_KE-105_Cu-Ka1_capillary-1mm_5s-deg.xyd
    1.500   13.0806
    1.635   11.6693
    1.770   10.3528
    1.905    9.6998
    2.040    9.2470
    2.175    8.6888
    2.310    8.4150
    2.445    8.0042
    2.580    8.4360
    2.715    8.2254
    2.850    8.6888
    2.985    9.4050
    3.120   10.3949
    3.255   11.9115
    3.390   15.0500
    3.525   19.1364
    3.660   26.5192
    3.795   42.9805
    3.930   44.4550
    4.065    5.9189
    4.200    5.7399
    4.335    5.5082
    4.470    5.5819
    4.605    5.5503
    4.740    5.5819
    4.875    6.0137
    5.010    6.0137
    5.145    6.6877
    5.280    8.2570
    5.415   10.2791
    5.550   12.6804
    5.685    5.4555
    5.820    5.3397
    5.955    4.9710
    6.090    4.9289
    6.225    5.0764
    6.360    4.8341
    6.495    5.2133
    6.630    5.8136
    6.765    6.0979
    6.900    4.9921
    7.035    4.9921
    7.170    5.3712
    7.305    5.0342
    7.440    5.0974
    7.575    6.1927
    7.710    6.6456
    7.845    8.0147
    7.980    5.0553
    8.115    5.0132
    8.250    5.2554
    8.385    4.8552
    8.520    5.5082
    8.655    5.5503
    8.790    5.7083
    8.925    5.4660
    9.060    5.5924
    9.195    5.2027
    9.330    5.8031
    9.465    7.4460
    9.600    9.8894
    9.735    5.3397
    9.870    5.6029
   10.005    5.2343
   10.140    5.5924
   10.275    6.5613
   10.410    6.5824
   10.545    5.6872
   10.680    5.6240
   10.815    5.7925
   10.950    6.0242
   11.085    6.9510
   11.220    5.0764
   11.355    5.2659
   11.490    5.6029
   11.625    5.9926
   11.760    7.1195
   11.895    5.0237
   12.030    4.9710
   12.165    5.2027
   12.300    5.1922
   12.435    4.6656
   12.570    4.5182
   12.705    4.7709
   12.840    5.0974
   12.975    6.1927
   13.110    5.0132
   13.245    4.6445
   13.380    4.7393
   13.515    5.1290
   13.650    4.9921
   13.785    4.5076
   13.920    4.6024
   14.055    5.4134
   14.190    5.1080
   14.325    4.4128
   14.460    4.7077
   14.595    4.6867
   14.730    4.5498
   14.865    4.6445
   15.000    4.6761
   15.135    4.9710
   15.270    4.7393
   15.405    4.6130
   15.540    4.9816
   15.675    4.3497
   15.810    4.4444
   15.945    4.3286
   16.080    4.5708
   16.215    4.7815
   16.350    4.9078
   16.485    4.8763
   16.620    4.6972
   16.755    4.7920
   16.890    4.5919
   17.025    5.0342
   17.160    4.9710
   17.295    5.0553
   17.430    4.7288
   17.565    4.9816
   17.700    4.6551
   17.835    4.7920
   17.970    4.6130
   18.105    4.7288
   18.240    4.8236
   18.375    4.7920
   18.510    4.7920
   18.645    4.6867
   18.780    4.7393
   18.915    4.7815
   19.050    4.6340
   19.185    4.8025
   19.320    4.8868
   19.455    4.8025
   19.590    5.4028
   19.725    5.0658
   19.860    4.5603
   19.995    4.8236
   20.130    5.1185
   20.265    4.9816
   20.400    5.6240
   20.535    5.3818
   20.670    5.0974
   20.805    4.9816
   20.940    5.1185
   21.075    4.6867
   21.210    5.2343
   21.345    5.1395
   21.480    5.0553
   21.615    4.8131
   21.750    5.3607
   21.885    5.2975
   22.020    5.1290
   22.155    5.0974
   22.290    5.3712
   22.425    5.3607
   22.560    5.7399
   22.695    5.6240
   22.830    5.4871
   22.965    6.1717
   23.100    5.0869
   23.235    5.5292
   23.370    4.9289
   23.505    5.3712
   23.640    5.2975
   23.775    4.9394
   23.910    5.1711
   24.045    5.1395
   24.180    4.6445
   24.315    5.1290
   24.450    4.8868
   24.585    5.0764
   24.720    5.0132
   24.855    5.3081
   24.990    4.9078
   25.125    5.0342
   25.260    5.0237
   25.395    4.8868
   25.530    5.2343
   25.665    5.0342
   25.800    5.6135
   25.935    5.3923
   26.070    4.8763
   26.205    5.0342
   26.340    4.8236
   26.475    5.0553
   26.610    4.7815
   26.745    4.7183
   26.880    4.7815
   27.015    5.0553
   27.150    5.0448
   27.285    4.3181
   27.420    4.5814
   27.555    4.8341
   27.690    4.7815
   27.825    5.0448
   27.960    4.6340
   28.095    4.5603
   28.230    4.7393
   28.365    4.5076
   28.500    4.4550
   28.635    5.1606
   28.770    4.3286
   28.905    4.9394
   29.040    4.3918
   29.175    4.4550
   29.310    4.8025
   29.445    4.2970
   29.580    4.4971
   29.715    4.1917
   29.850    4.3813
   29.985    4.3075
   30.120    4.5076
   30.255    4.1706
   30.390    4.3813
   30.525    4.4444
   30.660    4.5076
   30.795    4.4128
   30.930    3.9705
   31.065    4.0548
   31.200    4.1180
   31.335    3.8231
   31.470    4.4866
   31.605    4.1917
   31.740    4.1706
   31.875    3.7177
   32.010    3.8020
   32.145    3.9600
   32.280    4.0126
   32.415    3.7283
   32.550    3.7283
   32.685    3.7915
   32.820    3.4860
   32.955    3.7177
   33.090    3.6230
   33.225    3.9073
   33.360    3.7809
   33.495    3.9284
   33.630    3.7493
   33.765    3.6651
   33.900    3.8336
   34.035    3.9284
   34.170    3.7704
   34.305    3.6335
   34.440    3.6651
   34.575    3.6019
   34.710    3.5492
   34.845    3.7809
   34.980    3.7283
   35.115    3.8547
   35.250    3.4755
   35.385    3.4860
   35.520    3.6862
   35.655    3.3175
   35.790    3.4334
   35.925    3.1806
   36.060    3.5071
   36.195    3.5492
   36.330    3.6335
   36.465    3.4229
   36.600    3.6124
   36.735    3.5176
   36.870    3.4018
   37.005    3.2543
   37.140    3.3807
   37.275    3.2438
   37.410    3.1912
   37.545    3.3597
   37.680    3.3491
   37.815    3.5703
   37.950    3.1806
   38.085    3.2965
   38.220    3.3807
   38.355    3.2438
   38.490    3.4544
   38.625    3.0753
   38.760    3.1806
   38.895    3.2017
   39.030    3.1385
   39.165    3.3175
   39.300    3.1490
   39.435    3.2333
   39.570    3.1385
   39.705    3.2965
   39.840    3.1806
   39.975    3.3070
   39.990    3.5071