File: data/MOCOF-1/PXRD/PXRD_KE-127_Cu-Ka1_capillary-1mm_5s-deg.xyd
    1.500   16.8088
    1.635   16.1559
    1.770   14.2707
    1.905   14.6077
    2.040   15.1553
    2.175   15.7135
    2.310   15.3239
    2.445   17.4197
    2.580   19.9263
    2.715   22.6014
    2.850   27.0879
    2.985   34.6604
    3.120   45.1290
    3.255   64.6972
    3.390  105.5398
    3.525   84.6656
    3.660   37.2723
    3.795   40.7794
    3.930   51.6693
    4.065   50.8689
    4.200   34.1864
    4.335   17.9463
    4.470   11.6588
    4.605    8.3728
    4.740    7.0037
    4.875    6.8457
    5.010    5.9505
    5.145    6.0137
    5.280    5.9189
    5.415    5.6977
    5.550    5.2870
    5.685    5.3397
    5.820    5.1606
    5.955    5.2554
    6.090    5.1606
    6.225    5.5714
    6.360    5.3923
    6.495    6.4771
    6.630    7.0669
    6.765    8.6888
    6.900   14.5761
    7.035   11.8589
    7.170    7.1511
    7.305    5.8136
    7.440    6.6035
    7.575    6.3823
    7.710    7.0142
    7.845    7.7725
    7.980    8.4676
    8.115    8.7414
    8.250    8.8994
    8.385    8.3939
    8.520    7.1617
    8.655    6.2770
    8.790    5.6451
    8.925    5.2765
    9.060    4.9816
    9.195    4.7077
    9.330    5.1080
    9.465    4.9816
    9.600    4.8973
    9.735    4.9605
    9.870    4.9710
   10.005    4.8025
   10.140    4.9394
   10.275    5.4344
   10.410    5.7188
   10.545    5.5714
   10.680    4.9710
   10.815    5.2133
   10.950    4.7499
   11.085    5.2449
   11.220    4.7604
   11.355    4.7183
   11.490    4.9921
   11.625    5.1290
   11.760    5.0026
   11.895    5.1606
   12.030    5.2975
   12.165    5.1817
   12.300    5.7820
   12.435    5.2554
   12.570    5.2554
   12.705    5.4450
   12.840    5.4344
   12.975    5.4766
   13.110    5.0132
   13.245    5.1290
   13.380    5.0869
   13.515    5.4134
   13.650    4.9605
   13.785    4.8341
   13.920    4.9816
   14.055    5.0448
   14.190    4.9710
   14.325    4.8025
   14.460    4.8657
   14.595    4.5182
   14.730    5.0132
   14.865    4.7183
   15.000    4.7077
   15.135    4.8657
   15.270    4.7288
   15.405    5.0553
   15.540    4.6972
   15.675    4.9394
   15.810    4.8447
   15.945    4.9394
   16.080    5.1290
   16.215    4.6656
   16.350    4.6024
   16.485    4.9184
   16.620    4.8447
   16.755    4.3497
   16.890    4.9394
   17.025    4.9816
   17.160    4.5498
   17.295    4.8763
   17.430    4.7393
   17.565    5.0448
   17.700    4.7709
   17.835    4.4339
   17.970    5.1501
   18.105    4.7288
   18.240    4.8236
   18.375    4.7183
   18.510    4.9710
   18.645    5.2133
   18.780    5.0869
   18.915    4.8447
   19.050    5.2659
   19.185    4.8868
   19.320    4.9078
   19.455    4.9289
   19.590    5.2027
   19.725    5.2975
   19.860    5.6240
   19.995    5.4134
   20.130    5.3397
   20.265    5.7399
   20.400    5.6451
   20.535    5.2343
   20.670    5.2133
   20.805    5.6451
   20.940    5.3712
   21.075    5.3186
   21.210    5.4134
   21.345    5.2870
   21.480    5.1080
   21.615    5.4976
   21.750    5.2449
   21.885    5.5398
   22.020    5.6135
   22.155    5.3607
   22.290    5.6977
   22.425    5.5398
   22.560    4.9078
   22.695    5.1185
   22.830    5.4976
   22.965    5.2343
   23.100    5.0658
   23.235    5.0658
   23.370    5.0974
   23.505    5.3502
   23.640    5.4134
   23.775    5.1711
   23.910    4.9289
   24.045    5.0237
   24.180    5.2975
   24.315    4.8341
   24.450    5.2343
   24.585    4.8131
   24.720    5.4660
   24.855    4.9816
   24.990    5.0974
   25.125    4.4760
   25.260    4.5919
   25.395    4.4023
   25.530    4.9289
   25.665    4.9710
   25.800    4.5919
   25.935    5.0026
   26.070    4.8973
   26.205    4.5814
   26.340    4.2549
   26.475    4.5392
   26.610    4.4234
   26.745    4.3286
   26.880    4.7604
   27.015    4.2759
   27.150    4.9289
   27.285    4.5287
   27.420    4.7183
   27.555    4.6130
   27.690    4.6656
   27.825    4.3707
   27.960    4.4866
   28.095    4.4234
   28.230    4.8236
   28.365    4.5076
   28.500    4.2865
   28.635    4.3181
   28.770    4.2970
   28.905    4.3813
   29.040    4.5392
   29.175    4.5076
   29.310    4.2549
   29.445    4.4655
   29.580    4.1917
   29.715    4.0337
   29.850    4.5603
   29.985    4.1601
   30.120    4.2127
   30.255    4.2233
   30.390    4.0337
   30.525    3.9389
   30.660    4.3075
   30.795    3.9705
   30.930    4.0021
   31.065    4.1180
   31.200    3.8652
   31.335    3.9916
   31.470    4.1496
   31.605    4.3918
   31.740    4.1917
   31.875    4.2865
   32.010    4.3707
   32.145    4.5919
   32.280    3.9810
   32.415    4.1811
   32.550    3.9600
   32.685    4.1180
   32.820    4.0864
   32.955    3.7388
   33.090    4.0969
   33.225    3.6862
   33.360    3.6335
   33.495    3.6440
   33.630    3.7704
   33.765    4.0126
   33.900    3.7388
   34.035    3.7072
   34.170    3.3702
   34.305    3.7599
   34.440    3.4123
   34.575    3.6651
   34.710    3.4334
   34.845    3.7704
   34.980    3.7283
   35.115    3.5808
   35.250    3.3913
   35.385    3.2122
   35.520    3.7177
   35.655    3.2965
   35.790    3.1912
   35.925    3.5387
   36.060    3.2543
   36.195    3.0964
   36.330    3.4439
   36.465    3.3070
   36.600    3.4860
   36.735    3.2859
   36.870    3.0437
   37.005    3.4860
   37.140    3.0648
   37.275    3.2333
   37.410    3.0858
   37.545    3.2227
   37.680    3.3070
   37.815    3.5176
   37.950    3.2227
   38.085    2.9805
   38.220    3.2859
   38.355    3.3491
   38.490    3.3281
   38.625    3.2122
   38.760    3.4544
   38.895    3.2543
   39.030    3.2438
   39.165    3.2017
   39.300    3.3281
   39.435    3.0858
   39.570    3.2333
   39.705    3.1385
   39.840    3.2438
   39.975    2.9700
   39.990    3.1912