File: data/MOCOF-1/PXRD/PXRD_KE-305-3G_Cu-Ka1_capillary-1mm_3s-deg.xyd
    1.500   19.1680
    1.635   17.4829
    1.770   15.4292
    1.905   14.7973
    2.040   13.9372
    2.175   12.7260
    2.310   13.1999
    2.445   12.7084
    2.580   13.6914
    2.715   14.0425
    2.850   15.9733
    2.985   17.0967
    3.120   21.1164
    3.255   27.1020
    3.390   34.8780
    3.525   47.2705
    3.660   78.6905
    3.795  172.3890
    3.930   28.1025
    4.065    8.4430
    4.200    7.4952
    4.335    7.6180
    4.470    7.4250
    4.605    7.4074
    4.740    8.7941
    4.875   10.2861
    5.010   11.6026
    5.145   15.0606
    5.280   25.1009
    5.415   54.4673
    5.550   14.4286
    5.685    6.7053
    5.820    6.2313
    5.955    6.1787
    6.090    6.3367
    6.225    6.3191
    6.360    8.2324
    6.495    9.3909
    6.630   15.9909
    6.765   14.8850
    6.900    6.4069
    7.035    5.7925
    7.170    6.2489
    7.305    6.3191
    7.440    6.9861
    7.575    8.2851
    7.710   14.4813
    7.845    7.6005
    7.980    5.5117
    8.115    5.5117
    8.250    5.0553
    8.385    5.2484
    8.520    5.5819
    8.655    6.7228
    8.790    5.5468
    8.925    5.4590
    9.060    5.9505
    9.195    7.5829
    9.330    9.8999
    9.465   19.9754
    9.600   13.3930
    9.735    5.2835
    9.870    5.7223
   10.005    5.8803
   10.140    7.2494
   10.275   14.4638
   10.410    5.8978
   10.545    5.0026
   10.680    5.4415
   10.815    5.9154
   10.950    8.5484
   11.085    7.9516
   11.220    5.4590
   11.355    4.9324
   11.490    6.0734
   11.625    8.8819
   11.760    8.8643
   11.895    5.0728
   12.030    5.2133
   12.165    5.3712
   12.300    6.4069
   12.435    4.8798
   12.570    4.9149
   12.705    5.5643
   12.840    6.3367
   12.975    9.5840
   13.110    4.6691
   13.245    5.3888
   13.380    5.3712
   13.515    7.5127
   13.650    5.3537
   13.785    5.1080
   13.920    6.0207
   14.055    9.7069
   14.190    5.3010
   14.325    5.0553
   14.460    4.8973
   14.595    4.7218
   14.730    4.6340
   14.865    4.7744
   15.000    4.5814
   15.135    5.4415
   15.270    4.8973
   15.405    4.7218
   15.540    4.9500
   15.675    4.7920
   15.810    4.4234
   15.945    4.8095
   16.080    5.6170
   16.215    5.0728
   16.350    5.0026
   16.485    4.6691
   16.620    5.6521
   16.755    5.2133
   16.890    5.0026
   17.025    7.9691
   17.160    5.6170
   17.295    5.0026
   17.430    5.3361
   17.565    5.3010
   17.700    4.9324
   17.835    5.0026
   17.970    5.7574
   18.105    5.2484
   18.240    5.1957
   18.375    6.1085
   18.510    4.6691
   18.645    5.1957
   18.780    5.5117
   18.915    4.7218
   19.050    4.8973
   19.185    5.0904
   19.320    5.1782
   19.455    5.6697
   19.590    6.0909
   19.725    5.1080
   19.860    4.8798
   19.995    5.4590
   20.130    5.0904
   20.265    6.0734
   20.400    7.9516
   20.535    4.8095
   20.670    5.0377
   20.805    4.8798
   20.940    4.8271
   21.075    4.4936
   21.210    4.9675
   21.345    4.9851
   21.480    5.1255
   21.615    4.5814
   21.750    4.8271
   21.885    5.8101
   22.020    5.0377
   22.155    5.3888
   22.290    5.6170
   22.425    5.5994
   22.560    8.4781
   22.695    5.8452
   22.830    6.1611
   22.965    7.9691
   23.100    4.9500
   23.235    5.5468
   23.370    5.4239
   23.505    5.1431
   23.640    5.0728
   23.775    4.9851
   23.910    5.6697
   24.045    4.7744
   24.180    4.9675
   24.315    4.9500
   24.450    4.8798
   24.585    5.5819
   24.720    5.2484
   24.855    5.0377
   24.990    4.7569
   25.125    4.7569
   25.260    5.7223
   25.395    4.7569
   25.530    5.7750
   25.665    5.0904
   25.800    7.0739
   25.935    5.3888
   26.070    4.9149
   26.205    4.6340
   26.340    5.1606
   26.475    5.7750
   26.610    4.9675
   26.745    4.3707
   26.880    4.5287
   27.015    5.6521
   27.150    5.1431
   27.285    4.1250
   27.420    4.9324
   27.555    4.8095
   27.690    5.1782
   27.825    4.4409
   27.960    4.9500
   28.095    5.0728
   28.230    5.2659
   28.365    5.2133
   28.500    5.9681
   28.635    4.7569
   28.770    4.9149
   28.905    4.5463
   29.040    4.5287
   29.175    4.6516
   29.310    4.4936
   29.445    4.9324
   29.580    4.7218
   29.715    4.3883
   29.850    4.8447
   29.985    4.0548
   30.120    4.8095
   30.255    4.5463
   30.390    4.9149
   30.525    4.4585
   30.660    4.4585
   30.795    4.7569
   30.930    4.4936
   31.065    4.5989
   31.200    4.7042
   31.335    4.1952
   31.470    4.5111
   31.605    5.0904
   31.740    4.9675
   31.875    4.4585
   32.010    4.1601
   32.145    4.2127
   32.280    4.6165
   32.415    4.3356
   32.550    4.1250
   32.685    4.2654
   32.820    4.4760
   32.955    4.6516
   33.090    3.8266
   33.225    3.9846
   33.360    4.0723
   33.495    3.7915
   33.630    4.2303
   33.765    4.0899
   33.900    4.9324
   34.035    4.1952
   34.170    4.0723
   34.305    4.4234
   34.440    4.1776
   34.575    4.2654
   34.710    3.8441
   34.845    3.9670
   34.980    4.1250
   35.115    3.2649
   35.250    4.1250
   35.385    3.4755
   35.520    3.8968
   35.655    4.1074
   35.790    3.5457
   35.925    4.1250
   36.060    3.8441
   36.195    3.5808
   36.330    4.0723
   36.465    3.8090
   36.600    3.5808
   36.735    3.3877
   36.870    3.5808
   37.005    3.7388
   37.140    3.9846
   37.275    3.4229
   37.410    3.6159
   37.545    3.6686
   37.680    3.4755
   37.815    3.4229
   37.950    3.9319
   38.085    3.5106
   38.220    3.7037
   38.355    3.0542
   38.490    3.4404
   38.625    3.3000
   38.760    3.3175
   38.895    3.7213
   39.030    3.4931
   39.165    3.4053
   39.300    3.6862
   39.435    3.2473
   39.570    3.4755
   39.705    3.7739
   39.840    3.4580
   39.975    3.5282
   39.990    3.8266