File: data/MOCOF-1/PXRD/PXRD_KE-214_Co-Ka1_film-3mm_5s-deg.xyd
    1.500    4.6121
    1.635    4.1841
    1.770    3.8309
    1.905    3.3066
    2.040    3.0177
    2.175    2.8357
    2.310    2.9642
    2.445    2.6645
    2.580    2.3542
    2.715    2.0867
    2.850    2.2472
    2.985    2.2365
    3.120    2.0011
    3.255    2.2793
    3.390    2.3221
    3.525    2.3221
    3.660    2.8250
    3.795    4.0449
    3.930    5.6929
    4.065    6.8272
    4.200    4.1520
    4.335    3.4778
    4.470    3.1996
    4.605    3.2852
    4.740    3.5741
    4.875    3.3066
    5.010    2.7929
    5.145    2.3114
    5.280    2.0760
    5.415    1.8513
    5.550    1.7335
    5.685    1.8941
    5.820    1.8192
    5.955    1.7978
    6.090    1.9583
    6.225    2.0653
    6.360    2.0546
    6.495    2.1402
    6.630    2.1616
    6.765    1.9583
    6.900    1.8192
    7.035    1.5944
    7.170    1.5944
    7.305    1.4981
    7.440    1.4125
    7.575    1.4981
    7.710    1.5409
    7.845    1.4553
    7.980    1.5730
    8.115    1.8299
    8.250    1.6265
    8.385    1.3911
    8.520    1.3269
    8.655    1.2734
    8.790    1.0059
    8.925    1.1985
    9.060    1.2306
    9.195    1.1664
    9.330    1.0915
    9.465    1.1450
    9.600    1.1129
    9.735    0.9738
    9.870    1.1771
   10.005    1.0166
   10.140    1.0059
   10.275    1.0166
   10.410    0.9417
   10.545    0.9524
   10.680    0.8026
   10.815    1.1450
   10.950    1.0166
   11.085    1.0166
   11.220    0.9310
   11.355    0.9310
   11.490    0.8240
   11.625    1.0059
   11.760    0.8133
   11.895    0.9524
   12.030    1.0166
   12.165    0.9524
   12.300    0.9310
   12.435    1.0059
   12.570    1.0059
   12.705    1.0059
   12.840    0.9310
   12.975    0.9203
   13.110    0.9524
   13.245    0.8668
   13.380    0.8561
   13.515    1.0594
   13.650    0.9310
   13.785    0.8882
   13.920    0.9738
   14.055    1.0273
   14.190    0.9203
   14.325    0.9203
   14.460    0.9631
   14.595    0.9631
   14.730    0.9203
   14.865    0.9310
   15.000    0.8775
   15.135    0.9203
   15.270    0.6956
   15.405    0.7812
   15.540    0.8026
   15.675    0.9738
   15.810    0.8775
   15.945    0.8882
   16.080    0.9203
   16.215    0.9310
   16.350    1.1664
   16.485    0.8454
   16.620    0.8561
   16.755    0.8882
   16.890    1.1129
   17.025    1.2306
   17.160    0.8347
   17.295    0.9417
   17.430    0.7705
   17.565    0.8668
   17.700    0.7705
   17.835    0.8026
   17.970    0.9845
   18.105    0.7277
   18.240    0.8026
   18.375    0.9524
   18.510    0.8133
   18.645    0.9096
   18.780    0.8240
   18.915    0.8454
   19.050    0.9096
   19.185    0.8026
   19.320    0.9631
   19.455    0.8561
   19.590    0.7705
   19.725    0.9952
   19.860    0.9203
   19.995    1.0059
   20.130    0.8775
   20.265    0.8026
   20.400    0.8133
   20.535    1.0487
   20.670    0.8561
   20.805    0.9203
   20.940    0.9203
   21.075    0.7384
   21.210    0.7705
   21.345    0.8240
   21.480    0.7919
   21.615    0.7598
   21.750    0.8026
   21.885    0.7598
   22.020    0.9096
   22.155    0.8133
   22.290    0.7705
   22.425    0.6956
   22.560    0.8989
   22.695    0.7812
   22.830    0.8347
   22.965    0.8882
   23.100    0.7063
   23.235    0.8668
   23.370    0.7598
   23.505    0.6849
   23.640    0.8026
   23.775    0.7705
   23.910    0.6849
   24.045    0.6635
   24.180    0.7598
   24.315    0.7598
   24.450    0.7598
   24.585    0.7705
   24.720    0.7384
   24.855    0.7384
   24.990    0.6528
   25.125    0.7812
   25.260    0.6742
   25.395    0.7491
   25.530    0.7277
   25.665    0.6956
   25.800    0.7491
   25.935    0.6635
   26.070    0.7384
   26.205    0.5350
   26.340    0.5564
   26.475    0.6528
   26.610    0.6314
   26.745    0.6421
   26.880    0.6100
   27.015    0.7598
   27.150    0.5671
   27.285    0.6849
   27.420    0.5886
   27.555    0.7384
   27.690    0.6956
   27.825    0.7170
   27.960    0.7063
   28.095    0.5778
   28.230    0.7170
   28.365    0.5778
   28.500    0.6207
   28.635    0.7277
   28.770    0.5457
   28.905    0.6207
   29.040    0.6314
   29.175    0.5457
   29.310    0.4708
   29.445    0.5671
   29.580    0.5136
   29.715    0.5886
   29.850    0.4922
   29.985    0.5243
   30.120    0.5886
   30.255    0.5671
   30.390    0.4708
   30.525    0.5457
   30.660    0.5564
   30.795    0.5350
   30.930    0.5029
   31.065    0.5671
   31.200    0.5136
   31.335    0.5350
   31.470    0.5243
   31.605    0.4708
   31.740    0.4815
   31.875    0.3745
   32.010    0.4815
   32.145    0.5350
   32.280    0.5671
   32.415    0.4601
   32.550    0.4922
   32.685    0.5457
   32.820    0.5671
   32.955    0.3317
   33.090    0.3531
   33.225    0.3852
   33.360    0.5136
   33.495    0.4173
   33.630    0.3317
   33.765    0.3745
   33.900    0.3638
   34.035    0.4601
   34.170    0.3638
   34.305    0.3424
   34.440    0.2782
   34.575    0.4280
   34.710    0.2782
   34.845    0.4066
   34.980    0.3959
   35.115    0.5029
   35.250    0.3531
   35.385    0.5029
   35.520    0.2675
   35.655    0.5029
   35.790    0.3317
   35.925    0.2996
   36.060    0.4494
   36.195    0.3210
   36.330    0.2996
   36.465    0.3103
   36.600    0.3638
   36.735    0.4601
   36.870    0.3852
   37.005    0.2247
   37.140    0.2996
   37.275    0.3531
   37.410    0.4815
   37.545    0.3424
   37.680    0.3210
   37.815    0.2247
   37.950    0.2675
   38.085    0.3210
   38.220    0.3852
   38.355    0.2782
   38.490    0.2675
   38.625    0.2996
   38.760    0.3210
   38.895    0.2782
   39.030    0.3210
   39.165    0.2568
   39.300    0.2354
   39.435    0.2461
   39.570    0.2247
   39.705    0.2354
   39.840    0.2782
   39.975    0.2675
   39.990    0.2782