File: data/MOCOF-1/PXRD/PXRD_KE-163_Cu-Ka1_capillary-1mm_5s-deg.xyd
    1.500   24.4866
    1.635   21.5692
    1.770   18.9258
    1.905   16.7773
    2.040   15.8715
    2.175   15.2080
    2.310   14.6919
    2.445   14.8078
    2.580   15.7873
    2.715   17.2617
    2.850   19.9263
    2.985   23.8336
    3.120   29.6788
    3.255   41.4534
    3.390   64.3391
    3.525   60.4529
    3.660   38.4202
    3.795   44.6867
    3.930   42.9173
    4.065   24.2443
    4.200   18.3570
    4.335   12.7751
    4.470    9.7525
    4.605    7.7936
    4.740    7.2249
    4.875    6.3823
    5.010    5.9294
    5.145    6.2665
    5.280    7.0669
    5.415    8.6256
    5.550    8.7414
    5.685    5.1501
    5.820    5.1290
    5.955    5.0448
    6.090    5.1290
    6.225    5.0237
    6.360    5.4555
    6.495    5.1817
    6.630    6.2349
    6.765    8.4781
    6.900    9.3102
    7.035    8.6361
    7.170    5.7715
    7.305    5.4766
    7.440    5.5082
    7.575    5.4660
    7.710    6.0137
    7.845    6.8562
    7.980    6.1401
    8.115    6.2981
    8.250    5.6661
    8.385    5.4976
    8.520    5.5187
    8.655    5.1080
    8.790    4.8131
    8.925    4.8236
    9.060    4.7183
    9.195    5.0237
    9.330    4.6867
    9.465    5.6556
    9.600    7.3618
    9.735    4.0969
    9.870    4.2865
   10.005    4.4655
   10.140    4.6761
   10.275    5.6451
   10.410    5.1290
   10.545    4.7604
   10.680    4.4760
   10.815    4.3918
   10.950    4.2338
   11.085    5.2870
   11.220    4.1811
   11.355    4.4971
   11.490    4.5076
   11.625    4.5919
   11.760    5.4239
   11.895    4.3918
   12.030    4.3075
   12.165    4.3075
   12.300    4.5708
   12.435    4.2865
   12.570    4.4339
   12.705    4.4023
   12.840    4.6761
   12.975    4.6972
   13.110    4.2443
   13.245    4.1496
   13.380    4.4444
   13.515    4.6340
   13.650    4.4550
   13.785    4.3707
   13.920    4.2759
   14.055    4.3602
   14.190    4.5603
   14.325    4.2338
   14.460    4.2865
   14.595    4.4866
   14.730    4.1706
   14.865    4.1390
   15.000    4.1390
   15.135    4.2127
   15.270    4.0126
   15.405    4.1285
   15.540    4.1706
   15.675    4.0548
   15.810    4.0969
   15.945    4.2022
   16.080    4.0337
   16.215    4.0126
   16.350    4.2233
   16.485    4.2549
   16.620    4.2549
   16.755    4.3075
   16.890    3.9494
   17.025    4.4760
   17.160    4.6445
   17.295    4.0442
   17.430    4.1074
   17.565    4.1180
   17.700    4.4128
   17.835    4.3707
   17.970    4.3075
   18.105    4.1917
   18.240    4.0969
   18.375    4.1496
   18.510    4.4971
   18.645    3.9916
   18.780    4.3497
   18.915    4.1496
   19.050    4.0548
   19.185    4.3707
   19.320    4.4023
   19.455    4.0969
   19.590    4.5603
   19.725    4.5708
   19.860    4.4234
   19.995    4.3075
   20.130    4.1601
   20.265    4.5182
   20.400    4.3707
   20.535    4.5182
   20.670    4.2865
   20.805    4.3602
   20.940    4.4760
   21.075    4.5919
   21.210    4.6867
   21.345    4.3602
   21.480    4.3602
   21.615    4.6024
   21.750    4.6130
   21.885    4.6340
   22.020    4.5182
   22.155    4.6130
   22.290    4.5814
   22.425    4.5287
   22.560    4.8763
   22.695    4.6024
   22.830    4.5814
   22.965    5.0553
   23.100    4.5708
   23.235    4.5287
   23.370    4.2127
   23.505    4.8447
   23.640    4.4234
   23.775    4.5076
   23.910    4.5498
   24.045    4.3707
   24.180    4.4444
   24.315    4.2970
   24.450    4.4971
   24.585    4.4760
   24.720    4.4550
   24.855    3.9494
   24.990    4.6972
   25.125    4.2865
   25.260    4.1496
   25.395    4.1811
   25.530    4.1601
   25.665    4.2443
   25.800    4.3286
   25.935    4.2970
   26.070    3.9073
   26.205    4.1285
   26.340    4.0548
   26.475    4.0021
   26.610    4.1074
   26.745    3.9284
   26.880    3.7599
   27.015    4.2022
   27.150    3.8020
   27.285    3.7704
   27.420    3.9810
   27.555    4.0548
   27.690    4.0653
   27.825    4.3181
   27.960    3.9600
   28.095    4.0126
   28.230    3.6862
   28.365    4.2233
   28.500    3.7388
   28.635    3.8652
   28.770    4.0232
   28.905    3.8231
   29.040    3.8547
   29.175    3.5282
   29.310    3.9810
   29.445    3.6440
   29.580    3.8125
   29.715    3.6230
   29.850    3.6230
   29.985    3.9389
   30.120    3.6651
   30.255    3.3175
   30.390    3.6756
   30.525    3.8652
   30.660    3.5598
   30.795    3.6862
   30.930    3.5387
   31.065    3.7915
   31.200    3.5703
   31.335    3.6335
   31.470    3.6967
   31.605    3.6756
   31.740    3.5282
   31.875    3.6440
   32.010    3.5387
   32.145    3.7599
   32.280    3.4439
   32.415    3.4544
   32.550    3.4544
   32.685    3.6546
   32.820    3.1596
   32.955    3.6019
   33.090    3.2754
   33.225    3.3070
   33.360    3.2333
   33.495    3.0542
   33.630    3.2227
   33.765    3.3807
   33.900    3.3702
   34.035    3.1174
   34.170    3.2017
   34.305    3.0121
   34.440    3.0964
   34.575    2.6751
   34.710    3.2859
   34.845    3.2543
   34.980    2.7067
   35.115    2.8963
   35.250    3.0858
   35.385    3.1596
   35.520    3.0121
   35.655    2.8647
   35.790    2.9384
   35.925    2.8752
   36.060    3.0226
   36.195    3.2122
   36.330    2.8752
   36.465    2.7804
   36.600    2.9700
   36.735    2.8120
   36.870    2.8752
   37.005    2.8963
   37.140    2.7699
   37.275    3.0437
   37.410    2.8225
   37.545    2.9173
   37.680    2.7383
   37.815    2.6224
   37.950    2.8436
   38.085    2.8963
   38.220    2.8120
   38.355    2.5698
   38.490    2.5276
   38.625    2.6646
   38.760    2.7172
   38.895    2.5592
   39.030    2.9279
   39.165    2.6435
   39.300    2.9279
   39.435    2.5908
   39.570    2.6856
   39.705    2.7699
   39.840    2.8436
   39.975    2.8331
   39.990    2.5592