File: data/MOCOF-1/PXRD/PXRD_KE-119-3_Cu-Ka1_film-3mm_5s-deg.xyd
    1.500   11.3744
    1.635   10.4055
    1.770    9.0574
    1.905    9.2786
    2.040    7.9831
    2.175    7.2249
    2.310    7.1406
    2.445    6.7509
    2.580    6.7930
    2.715    6.5087
    2.850    6.7193
    2.985    6.2243
    3.120    6.2033
    3.255    5.7609
    3.390    6.1822
    3.525    6.0979
    3.660    5.7925
    3.795    6.3718
    3.930    6.3718
    4.065    6.0032
    4.200    5.8452
    4.335    6.2454
    4.470    6.0137
    4.605    6.0348
    4.740    6.4244
    4.875    6.5087
    5.010    6.5508
    5.145    7.1722
    5.280    7.4250
    5.415    8.0674
    5.550    8.2254
    5.685    7.3407
    5.820    7.2354
    5.955    6.4560
    6.090    5.7715
    6.225    5.7820
    6.360    5.8031
    6.495    5.7399
    6.630    5.3923
    6.765    5.5924
    6.900    5.0658
    7.035    4.8973
    7.170    4.9289
    7.305    4.9710
    7.440    4.6761
    7.575    4.4760
    7.710    3.9916
    7.845    4.2970
    7.980    4.3918
    8.115    4.1390
    8.250    3.9600
    8.385    4.2127
    8.520    4.0653
    8.655    3.8547
    8.790    3.8968
    8.925    4.0653
    9.060    3.7809
    9.195    3.7809
    9.330    4.1496
    9.465    3.9705
    9.600    4.0126
    9.735    4.0232
    9.870    3.8441
   10.005    3.8020
   10.140    3.9810
   10.275    4.1285
   10.410    4.1601
   10.545    4.2443
   10.680    4.0021
   10.815    4.2443
   10.950    4.2654
   11.085    4.6445
   11.220    3.8968
   11.355    4.1811
   11.490    3.8863
   11.625    4.3707
   11.760    4.1180
   11.895    4.0442
   12.030    3.6862
   12.165    4.0548
   12.300    4.0442
   12.435    3.6651
   12.570    3.7283
   12.705    3.5808
   12.840    3.6124
   12.975    3.9284
   13.110    3.9810
   13.245    3.5914
   13.380    4.0021
   13.515    3.6651
   13.650    3.6546
   13.785    4.0969
   13.920    3.8020
   14.055    4.2022
   14.190    3.8336
   14.325    3.9284
   14.460    3.7388
   14.595    4.1180
   14.730    3.7704
   14.865    4.1706
   15.000    3.8125
   15.135    3.8547
   15.270    3.8020
   15.405    3.9073
   15.540    3.5808
   15.675    3.6124
   15.810    3.5598
   15.945    3.5598
   16.080    3.7177
   16.215    3.3702
   16.350    4.0126
   16.485    3.6546
   16.620    3.7599
   16.755    3.6440
   16.890    3.7809
   17.025    3.8652
   17.160    3.8441
   17.295    3.6440
   17.430    3.6440
   17.565    3.4229
   17.700    3.6019
   17.835    3.8231
   17.970    3.6335
   18.105    3.6019
   18.240    3.4229
   18.375    3.4123
   18.510    3.3913
   18.645    3.5176
   18.780    3.6440
   18.915    3.5387
   19.050    3.5282
   19.185    3.4334
   19.320    3.5071
   19.455    3.3070
   19.590    3.9916
   19.725    3.2859
   19.860    3.3807
   19.995    3.1912
   20.130    3.2122
   20.265    3.4334
   20.400    3.2859
   20.535    3.2227
   20.670    3.2859
   20.805    3.2333
   20.940    3.4123
   21.075    3.3175
   21.210    3.7283
   21.345    3.3175
   21.480    3.2965
   21.615    3.2017
   21.750    3.4123
   21.885    3.2754
   22.020    3.0648
   22.155    3.0542
   22.290    3.0226
   22.425    3.1596
   22.560    3.1596
   22.695    3.1069
   22.830    2.8857
   22.965    2.9595
   23.100    3.2754
   23.235    3.1596
   23.370    2.8331
   23.505    2.9805
   23.640    2.6540
   23.775    3.1490
   23.910    2.7804
   24.045    2.8752
   24.180    2.7804
   24.315    3.0437
   24.450    2.8857
   24.585    2.7699
   24.720    2.6014
   24.855    2.7804
   24.990    2.8752
   25.125    2.5698
   25.260    2.8225
   25.395    2.6540
   25.530    2.7593
   25.665    2.9595
   25.800    2.8015
   25.935    2.9700
   26.070    2.5592
   26.205    2.8647
   26.340    2.6119
   26.475    2.8225
   26.610    2.7172
   26.745    2.5171
   26.880    2.4750
   27.015    2.4750
   27.150    2.8752
   27.285    2.6962
   27.420    2.6751
   27.555    2.3275
   27.690    2.4539
   27.825    2.3591
   27.960    2.6856
   28.095    2.4750
   28.230    2.2959
   28.365    2.5171
   28.500    2.2643
   28.635    2.3065
   28.770    2.3486
   28.905    2.3170
   29.040    2.4645
   29.175    2.7172
   29.310    2.3275
   29.445    2.0642
   29.580    2.3381
   29.715    2.0642
   29.850    2.1064
   29.985    1.9379
   30.120    2.1590
   30.255    2.2012
   30.390    2.4539
   30.525    2.0958
   30.660    2.0326
   30.795    2.3275
   30.930    2.0853
   31.065    2.0116
   31.200    1.9695
   31.335    1.8536
   31.470    1.9484
   31.605    1.9905
   31.740    1.8957
   31.875    1.8747
   32.010    2.1485
   32.145    2.0116
   32.280    1.7378
   32.415    1.7272
   32.550    1.9168
   32.685    1.7588
   32.820    1.8747
   32.955    1.9379
   33.090    1.5377
   33.225    1.7904
   33.360    1.9063
   33.495    1.6640
   33.630    1.5587
   33.765    1.7483
   33.900    1.7588
   34.035    1.5692
   34.170    1.8852
   34.305    1.8009
   34.440    1.5903
   34.575    1.8220
   34.710    1.8325
   34.845    1.7799
   34.980    1.7272
   35.115    1.5482
   35.250    1.6956
   35.385    1.6956
   35.520    1.5903
   35.655    1.6324
   35.790    1.6956
   35.925    1.7272
   36.060    1.9695
   36.195    1.8220
   36.330    1.8009
   36.465    1.7799
   36.600    1.5482
   36.735    1.6430
   36.870    1.5587
   37.005    1.6746
   37.140    1.7272
   37.275    1.6114
   37.410    1.7904
   37.545    1.5271
   37.680    1.4955
   37.815    1.8009
   37.950    1.5482
   38.085    1.6219
   38.220    1.5903
   38.355    1.6219
   38.490    1.6535
   38.625    1.6008
   38.760    1.7588
   38.895    1.5061
   39.030    1.8957
   39.165    1.7904
   39.300    1.5377
   39.435    1.6851
   39.570    1.6956
   39.705    1.8009
   39.840    1.6008
   39.975    1.5903
   39.990    1.3586