File: data/MOCOF-1/PXRD/PXRD_KE-166_Cu-Ka1_capillary-1mm_5s-deg.xyd
    1.500   33.5229
    1.635   29.4365
    1.770   24.2443
    1.905   20.4634
    2.040   17.9568
    2.175   16.3349
    2.310   14.6077
    2.445   13.4281
    2.580   11.0900
    2.715   11.7641
    2.850   10.7320
    2.985   10.5424
    3.120    9.5419
    3.255    9.1627
    3.390    8.6783
    3.525    8.3939
    3.660    8.2780
    3.795    7.8989
    3.930    7.6461
    4.065    7.6777
    4.200    7.6461
    4.335    7.4566
    4.470    6.9616
    4.605    7.2670
    4.740    6.8878
    4.875    7.0248
    5.010    6.9194
    5.145    6.4560
    5.280    6.8141
    5.415    6.7299
    5.550    6.4560
    5.685    6.5824
    5.820    6.6983
    5.955    6.6456
    6.090    6.7193
    6.225    6.6351
    6.360    6.4560
    6.495    6.5087
    6.630    6.6877
    6.765    6.4982
    6.900    6.3402
    7.035    6.5508
    7.170    6.2033
    7.305    6.1085
    7.440    6.0453
    7.575    6.0558
    7.710    6.1295
    7.845    6.3718
    7.980    6.4666
    8.115    6.5192
    8.250    6.5508
    8.385    6.2875
    8.520    6.4034
    8.655    6.2665
    8.790    6.5087
    8.925    6.3928
    9.060    6.3296
    9.195    6.7088
    9.330    6.3191
    9.465    6.5403
    9.600    6.2033
    9.735    6.6351
    9.870    6.6351
   10.005    6.2349
   10.140    6.4876
   10.275    6.1295
   10.410    6.3296
   10.545    6.4244
   10.680    6.2875
   10.815    5.8136
   10.950    6.1190
   11.085    6.2559
   11.220    6.2875
   11.355    6.0874
   11.490    5.8768
   11.625    5.8873
   11.760    6.0769
   11.895    6.0769
   12.030    6.0137
   12.165    6.0032
   12.300    5.5924
   12.435    5.8031
   12.570    6.1085
   12.705    5.8662
   12.840    5.5819
   12.975    5.8768
   13.110    5.8873
   13.245    5.9294
   13.380    6.2770
   13.515    5.7083
   13.650    5.8241
   13.785    5.7083
   13.920    5.8978
   14.055    5.8136
   14.190    5.7399
   14.325    5.6767
   14.460    5.8136
   14.595    5.6872
   14.730    5.6767
   14.865    5.7188
   15.000    5.5292
   15.135    5.8978
   15.270    5.9294
   15.405    5.4450
   15.540    5.7399
   15.675    5.9400
   15.810    5.4871
   15.945    5.9716
   16.080    5.7504
   16.215    5.8768
   16.350    5.7188
   16.485    5.9189
   16.620    5.6556
   16.755    5.7925
   16.890    5.8347
   17.025    5.3607
   17.160    6.0558
   17.295    5.4450
   17.430    5.9294
   17.565    5.9926
   17.700    5.9505
   17.835    5.6767
   17.970    5.8978
   18.105    5.5714
   18.240    5.7188
   18.375    5.9294
   18.510    6.3718
   18.645    5.8557
   18.780    5.4239
   18.915    5.9926
   19.050    6.0769
   19.185    5.8978
   19.320    5.6135
   19.455    5.3712
   19.590    5.7188
   19.725    6.0769
   19.860    5.8136
   19.995    5.6451
   20.130    6.1190
   20.265    5.6767
   20.400    5.5819
   20.535    5.7609
   20.670    5.9505
   20.805    5.7715
   20.940    5.6029
   21.075    5.8768
   21.210    5.8347
   21.345    6.2033
   21.480    5.8873
   21.615    5.9610
   21.750    5.6767
   21.885    5.7293
   22.020    5.7399
   22.155    5.8662
   22.290    5.8768
   22.425    5.5082
   22.560    6.3928
   22.695    6.2770
   22.830    5.6451
   22.965    5.8031
   23.100    6.0137
   23.235    5.7293
   23.370    5.7820
   23.505    5.8557
   23.640    6.2349
   23.775    5.9189
   23.910    5.9400
   24.045    5.8347
   24.180    5.8873
   24.315    5.7715
   24.450    5.5187
   24.585    5.9189
   24.720    5.8873
   24.855    5.5924
   24.990    5.8662
   25.125    5.2238
   25.260    5.5608
   25.395    6.0137
   25.530    5.6451
   25.665    5.4976
   25.800    5.2133
   25.935    5.6345
   26.070    5.2238
   26.205    5.7504
   26.340    5.6872
   26.475    5.6556
   26.610    5.5608
   26.745    5.9189
   26.880    5.6872
   27.015    5.4134
   27.150    5.1080
   27.285    5.5608
   27.420    5.3502
   27.555    5.5819
   27.690    5.1290
   27.825    5.7715
   27.960    5.5503
   28.095    5.9821
   28.230    5.3712
   28.365    5.2449
   28.500    5.3712
   28.635    5.4450
   28.770    5.3502
   28.905    5.6977
   29.040    5.4028
   29.175    5.2975
   29.310    5.2449
   29.445    5.0026
   29.580    5.1922
   29.715    5.3818
   29.850    5.3502
   29.985    5.2449
   30.120    4.9816
   30.255    5.0448
   30.390    5.2343
   30.525    5.3923
   30.660    5.4028
   30.795    4.9289
   30.930    5.0132
   31.065    5.0658
   31.200    5.2027
   31.335    5.5187
   31.470    5.2870
   31.605    4.6972
   31.740    4.9394
   31.875    5.3186
   32.010    5.2870
   32.145    6.2981
   32.280    5.0237
   32.415    5.0764
   32.550    5.2449
   32.685    5.0026
   32.820    5.1711
   32.955    4.7604
   33.090    5.2765
   33.225    4.7709
   33.360    5.0237
   33.495    4.7499
   33.630    4.8447
   33.765    5.1711
   33.900    5.4660
   34.035    5.0448
   34.170    5.0869
   34.305    4.5919
   34.440    4.6235
   34.575    4.6761
   34.710    4.5076
   34.845    4.9816
   34.980    4.5498
   35.115    4.8973
   35.250    4.4128
   35.385    4.5498
   35.520    4.6551
   35.655    4.5603
   35.790    5.0448
   35.925    4.3918
   36.060    4.2865
   36.195    4.6024
   36.330    4.3813
   36.465    4.4971
   36.600    4.6340
   36.735    4.5603
   36.870    4.6130
   37.005    4.7077
   37.140    4.6761
   37.275    4.2759
   37.410    4.5498
   37.545    4.5919
   37.680    4.7288
   37.815    4.5498
   37.950    4.3075
   38.085    4.1706
   38.220    4.4128
   38.355    4.4023
   38.490    4.4339
   38.625    4.6130
   38.760    4.5392
   38.895    4.6130
   39.030    4.3075
   39.165    4.4971
   39.300    4.2233
   39.435    4.3602
   39.570    4.6656
   39.705    4.4444
   39.840    4.1496
   39.975    4.1390
   39.990    4.2759