File: data/MOCOF-1/PXRD/PXRD_KE-275_Cu-Ka1_film-3mm_60s-deg.xyd
    1.500   13.0999
    1.635   12.3600
    1.770   11.7193
    1.905   10.9461
    2.040   10.2694
    2.175    9.8447
    2.310    9.5226
    2.445    9.0688
    2.580    8.9459
    2.715    8.9064
    2.850    8.7318
    2.985    8.6932
    3.120    8.7467
    3.255    8.9038
    3.390    9.3795
    3.525   10.4011
    3.660   13.0814
    3.795   18.8740
    3.930    8.7783
    4.065    8.3114
    4.200    8.3184
    4.335    8.3825
    4.470    8.2833
    4.605    8.3105
    4.740    8.3869
    4.875    8.5879
    5.010    8.9521
    5.145    9.5743
    5.280   10.6082
    5.415   11.4288
    5.550   10.9163
    5.685   10.3748
    5.820    9.4989
    5.955    8.9600
    6.090    8.5396
    6.225    8.0718
    6.360    7.8770
    6.495    7.8032
    6.630    7.6303
    6.765    7.2012
    6.900    7.0730
    7.035    6.9080
    7.170    6.5517
    7.305    6.3411
    7.440    6.2673
    7.575    6.3200
    7.710    5.9022
    7.845    5.7653
    7.980    5.5994
    8.115    5.7285
    8.250    5.3704
    8.385    5.4344
    8.520    5.5477
    8.655    5.3072
    8.790    5.1176
    8.925    5.1185
    9.060    5.1115
    9.195    5.1018
    9.330    5.3695
    9.465    5.1176
    9.600    5.1018
    9.735    5.0772
    9.870    5.0702
   10.005    5.2308
   10.140    5.4344
   10.275    5.2212
   10.410    5.2510
   10.545    5.2835
   10.680    5.4467
   10.815    5.6495
   10.950    5.4695
   11.085    5.4028
   11.220    5.4669
   11.355    5.3739
   11.490    5.4283
   11.625    5.1896
   11.760    5.1931
   11.895    5.3045
   12.030    5.2352
   12.165    5.1922
   12.300    4.9807
   12.435    4.9561
   12.570    5.0614
   12.705    5.0342
   12.840    4.8569
   12.975    4.8613
   13.110    4.8359
   13.245    4.8341
   13.380    4.8411
   13.515    4.8771
   13.650    4.9535
   13.785    5.1159
   13.920    5.0895
   14.055    5.0790
   14.190    5.2545
   14.325    5.3765
   14.460    5.4230
   14.595    5.3098
   14.730    5.1843
   14.865    5.0737
   15.000    4.8859
   15.135    4.9289
   15.270    4.8104
   15.405    4.8157
   15.540    4.7867
   15.675    4.8403
   15.810    4.8192
   15.945    4.8631
   16.080    4.8587
   16.215    4.7665
   16.350    4.8253
   16.485    4.8587
   16.620    4.8262
   16.755    4.8289
   16.890    4.7543
   17.025    4.7499
   17.160    4.7376
   17.295    4.6761
   17.430    4.7209
   17.565    4.6937
   17.700    4.7393
   17.835    4.6735
   17.970    4.6384
   18.105    4.6270
   18.240    4.6323
   18.375    4.6261
   18.510    4.6586
   18.645    4.6621
   18.780    4.6867
   18.915    4.6156
   19.050    4.5384
   19.185    4.6130
   19.320    4.5155
   19.455    4.4787
   19.590    4.4559
   19.725    4.4813
   19.860    4.4032
   19.995    4.4848
   20.130    4.3303
   20.265    4.2680
   20.400    4.3453
   20.535    4.3576
   20.670    4.1811
   20.805    4.2163
   20.940    4.1969
   21.075    4.1364
   21.210    4.2522
   21.345    4.2136
   21.480    4.1847
   21.615    4.1469
   21.750    4.1750
   21.885    4.0618
   22.020    4.1065
   22.155    4.1136
   22.290    4.0091
   22.425    4.0486
   22.560    3.9275
   22.695    3.8371
   22.830    3.9451
   22.965    3.8722
   23.100    3.8538
   23.235    3.7897
   23.370    3.9187
   23.505    3.6704
   23.640    3.6581
   23.775    3.7511
   23.910    3.6510
   24.045    3.6080
   24.180    3.6115
   24.315    3.6098
   24.450    3.4904
   24.585    3.5615
   24.720    3.4869
   24.855    3.5764
   24.990    3.4790
   25.125    3.5334
   25.260    3.4825
   25.395    3.4711
   25.530    3.3509
   25.665    3.3781
   25.800    3.4158
   25.935    3.3605
   26.070    3.3237
   26.205    3.2895
   26.340    3.3325
   26.475    3.2895
   26.610    3.2385
   26.745    3.2236
   26.880    3.2148
   27.015    3.1955
   27.150    3.1402
   27.285    3.0621
   27.420    3.0033
   27.555    3.0850
   27.690    2.9472
   27.825    2.9788
   27.960    2.9998
   28.095    2.9858
   28.230    2.9919
   28.365    2.9129
   28.500    2.8620
   28.635    2.8708
   28.770    2.9129
   28.905    2.9410
   29.040    2.9112
   29.175    2.9077
   29.310    2.7936
   29.445    2.6733
   29.580    2.5996
   29.715    2.6066
   29.850    2.5557
   29.985    2.5715
   30.120    2.4882
   30.255    2.5101
   30.390    2.4136
   30.525    2.4846
   30.660    2.4697
   30.795    2.4364
   30.930    2.4021
   31.065    2.4074
   31.200    2.3214
   31.335    2.3030
   31.470    2.2740
   31.605    2.2810
   31.740    2.1968
   31.875    2.2055
   32.010    2.1617
   32.145    2.1713
   32.280    2.1476
   32.415    2.1134
   32.550    2.1669
   32.685    2.2047
   32.820    2.0844
   32.955    2.1643
   33.090    2.0748
   33.225    2.0247
   33.360    2.0265
   33.495    1.9967
   33.630    2.0660
   33.765    2.0484
   33.900    2.0335
   34.035    2.0151
   34.170    2.0555
   34.305    1.9510
   34.440    2.0414
   34.575    2.0063
   34.710    1.9317
   34.845    1.9721
   34.980    1.9563
   35.115    1.9782
   35.250    1.9212
   35.385    1.9730
   35.520    1.9019
   35.655    1.9308
   35.790    1.9071
   35.925    1.8966
   36.060    1.9431
   36.195    1.9098
   36.330    1.9554
   36.465    1.9703
   36.600    1.9607
   36.735    1.9308
   36.870    1.9115
   37.005    1.8466
   37.140    1.8712
   37.275    1.8536
   37.410    1.8404
   37.545    1.7878
   37.680    1.7755
   37.815    1.8501
   37.950    1.8036
   38.085    1.7974
   38.220    1.7764
   38.355    1.8422
   38.490    1.7623
   38.625    1.7930
   38.760    1.7948
   38.895    1.7413
   39.030    1.8001
   39.165    1.7492
   39.300    1.7571
   39.435    1.7202
   39.570    1.7474
   39.705    1.7457
   39.840    1.6816
   39.975    1.7272
   39.990    1.7360