File: data/MOCOF-1/PXRD/PXRD_KE-019_Cu-Ka1_capillary-1mm_5s-deg.xyd
    1.500   45.6030
    1.635   40.1896
    1.770   36.7351
    1.905   33.5440
    2.040   30.2896
    2.175   29.4681
    2.310   27.5513
    2.445   27.7199
    2.580   27.8357
    2.715   29.1733
    2.850   31.2375
    2.985   35.0290
    3.120   39.6209
    3.255   47.3196
    3.390   61.6008
    3.525   63.0542
    3.660   42.8857
    3.795   39.6314
    3.930   35.6187
    4.065   26.6351
    4.200   18.3360
    4.335   15.6293
    4.470   13.0806
    4.605   13.0384
    4.740   11.9642
    4.875   11.4271
    5.010   10.9110
    5.145   10.9110
    5.280   10.7530
    5.415   10.2370
    5.550   10.1316
    5.685    9.2891
    5.820    9.6577
    5.955    9.5313
    6.090    9.8578
    6.225    9.6261
    6.360   10.1106
    6.495   10.9847
    6.630   11.5008
    6.765   13.0174
    6.900   15.8715
    7.035   15.6082
    7.170   12.1748
    7.305   11.5745
    7.440   10.9742
    7.575   12.0484
    7.710   13.0384
    7.845   14.4181
    7.980   14.4076
    8.115   12.5961
    8.250   10.7952
    8.385    9.9842
    8.520    9.2575
    8.655    9.5419
    8.790    9.4892
    8.925    9.2786
    9.060    9.5313
    9.195    9.5313
    9.330    9.4365
    9.465    9.2680
    9.600    9.3102
    9.735    9.3523
    9.870    9.2891
   10.005    9.5735
   10.140    9.4997
   10.275    9.5840
   10.410   10.0685
   10.545    9.8157
   10.680    9.8368
   10.815    9.8473
   10.950    9.4997
   11.085    9.0363
   11.220    9.1101
   11.355    9.1101
   11.490    9.3207
   11.625    9.5208
   11.760    8.7941
   11.895    9.4997
   12.030    9.3734
   12.165    9.1311
   12.300    8.9100
   12.435    9.2470
   12.570    8.5940
   12.705    8.7098
   12.840    8.9942
   12.975    8.8784
   13.110    8.1938
   13.245    8.8362
   13.380    8.4150
   13.515    8.2991
   13.650    8.6467
   13.785    8.5097
   13.920    7.8568
   14.055    8.2886
   14.190    8.1833
   14.325    8.0779
   14.460    8.6256
   14.595    8.3412
   14.730    7.6567
   14.865    8.0779
   15.000    8.2570
   15.135    8.2780
   15.270    7.9410
   15.405    7.9831
   15.540    8.5203
   15.675    8.2570
   15.810    8.0569
   15.945    8.8468
   16.080    8.2780
   16.215    8.5203
   16.350    8.4466
   16.485    8.4360
   16.620    7.6040
   16.755    8.1517
   16.890    8.0463
   17.025    8.4255
   17.160    8.3834
   17.295    8.1306
   17.430    8.7941
   17.565    8.5308
   17.700    8.0990
   17.835    8.5308
   17.970    8.1622
   18.105    8.6045
   18.240    8.6045
   18.375    8.6045
   18.510    8.4781
   18.645    8.3623
   18.780    8.3939
   18.915    8.3307
   19.050    8.5413
   19.185    8.7309
   19.320    8.6256
   19.455    8.8784
   19.590    8.2464
   19.725    8.5308
   19.860    8.9626
   19.995    9.1522
   20.130    8.5413
   20.265    9.2786
   20.400    9.0047
   20.535    9.0574
   20.670    8.9521
   20.805    8.4466
   20.940    9.0258
   21.075    8.9731
   21.210    8.7941
   21.345    8.8152
   21.480    8.8573
   21.615    9.4471
   21.750    9.1311
   21.885    9.0047
   22.020    9.1101
   22.155    9.5208
   22.290    9.5735
   22.425    9.4997
   22.560    9.1101
   22.695    9.5208
   22.830    8.8468
   22.965    9.1206
   23.100    9.0995
   23.235    8.8889
   23.370    9.1732
   23.505    8.8468
   23.640    8.6256
   23.775    9.1101
   23.910    8.5203
   24.045    8.9731
   24.180    8.2886
   24.315    8.7414
   24.450    8.6045
   24.585    8.3834
   24.720    8.6256
   24.855    8.7520
   24.990    8.2570
   25.125    8.1306
   25.260    8.2149
   25.395    8.4992
   25.530    8.3834
   25.665    8.2991
   25.800    8.2780
   25.935    8.6677
   26.070    7.9621
   26.205    7.9831
   26.340    8.0358
   26.475    7.7304
   26.610    8.1517
   26.745    7.8673
   26.880    8.0253
   27.015    7.8673
   27.150    7.7199
   27.285    7.7725
   27.420    7.6251
   27.555    8.0147
   27.690    8.0042
   27.825    7.7725
   27.960    7.2249
   28.095    7.9200
   28.230    7.0563
   28.365    7.5935
   28.500    7.9200
   28.635    7.5303
   28.770    7.6988
   28.905    7.1827
   29.040    7.1617
   29.175    7.0879
   29.310    7.3302
   29.445    7.3407
   29.580    7.3407
   29.715    7.0879
   29.850    7.3512
   29.985    7.8673
   30.120    7.0985
   30.255    7.6461
   30.390    7.4355
   30.525    6.9405
   30.660    7.3407
   30.795    7.2249
   30.930    7.3091
   31.065    6.7825
   31.200    6.9510
   31.335    7.2775
   31.470    6.7825
   31.605    6.8246
   31.740    6.7720
   31.875    6.9405
   32.010    7.3512
   32.145    7.3407
   32.280    6.9932
   32.415    6.8036
   32.550    7.0669
   32.685    7.0563
   32.820    6.6140
   32.955    6.5087
   33.090    6.5613
   33.225    6.8878
   33.360    6.8562
   33.495    6.8773
   33.630    6.7720
   33.765    6.5824
   33.900    6.4034
   34.035    6.5508
   34.170    6.4982
   34.305    6.5508
   34.440    6.6983
   34.575    6.3612
   34.710    6.6140
   34.845    6.6140
   34.980    6.7720
   35.115    6.3928
   35.250    6.5192
   35.385    6.5613
   35.520    6.4139
   35.655    6.3823
   35.790    6.4560
   35.925    6.2981
   36.060    5.7609
   36.195    6.5929
   36.330    6.3191
   36.465    6.0032
   36.600    6.7404
   36.735    6.1927
   36.870    5.8136
   37.005    6.2349
   37.140    6.0558
   37.275    6.2559
   37.410    6.0664
   37.545    6.3191
   37.680    6.0769
   37.815    5.9926
   37.950    5.8978
   38.085    5.9084
   38.220    6.0664
   38.355    6.0032
   38.490    6.0032
   38.625    6.1190
   38.760    6.0769
   38.895    5.8347
   39.030    6.1822
   39.165    6.1506
   39.300    6.3296
   39.435    6.2349
   39.570    6.2454
   39.705    6.0664
   39.840    5.9821
   39.975    6.1611
   39.990    6.2875