File: data/MOCOF-1/PXRD/PXRD_KE-267_Cu-Ka1_film-3mm_3s-deg.xyd
    1.500   15.5345
    1.635   13.9372
    1.770   13.4457
    1.905   12.6031
    2.040   10.8829
    2.175   10.7776
    2.310   10.4616
    2.445    9.9877
    2.580    9.2329
    2.715    9.3382
    2.850    9.1452
    2.985    8.9521
    3.120   10.1457
    3.255   10.8127
    3.390   14.2005
    3.525   13.2701
    3.660   12.4978
    3.795   17.0441
    3.930   11.9712
    4.065    9.9175
    4.200   10.8127
    4.335    9.9351
    4.470    8.9345
    4.605    9.0574
    4.740    8.5484
    4.875    9.1978
    5.010    9.6718
    5.145   10.2335
    5.280   10.3212
    5.415   11.6904
    5.550   11.9712
    5.685   10.2686
    5.820    9.8297
    5.955    8.8117
    6.090    8.4255
    6.225    8.0393
    6.360    8.2675
    6.495    8.1622
    6.630    8.7414
    6.765    8.1622
    6.900    8.0920
    7.035    7.7760
    7.170    7.0212
    7.305    6.7228
    7.440    6.5824
    7.575    7.0739
    7.710    6.4595
    7.845    6.6175
    7.980    6.9861
    8.115    5.9681
    8.250    6.1436
    8.385    6.2313
    8.520    6.3191
    8.655    6.0909
    8.790    6.2489
    8.925    5.8803
    9.060    5.8276
    9.195    5.5292
    9.330    5.8101
    9.465    6.3893
    9.600    6.0734
    9.735    5.6697
    9.870    5.8276
   10.005    5.3361
   10.140    5.4415
   10.275    5.7574
   10.410    5.4941
   10.545    5.8101
   10.680    5.8452
   10.815    5.8452
   10.950    6.5649
   11.085    6.0734
   11.220    6.0909
   11.355    5.9856
   11.490    6.0383
   11.625    6.1787
   11.760    6.7228
   11.895    5.8452
   12.030    5.3010
   12.165    5.8276
   12.300    6.3016
   12.435    5.0026
   12.570    5.2308
   12.705    5.7574
   12.840    5.9154
   12.975    6.1260
   13.110    5.2835
   13.245    5.3010
   13.380    5.4766
   13.515    5.6521
   13.650    5.7223
   13.785    5.6345
   13.920    5.8101
   14.055    5.6345
   14.190    5.9681
   14.325    5.9154
   14.460    5.7399
   14.595    5.9856
   14.730    5.7399
   14.865    5.5994
   15.000    5.5643
   15.135    5.3361
   15.270    5.0377
   15.405    5.0377
   15.540    5.0202
   15.675    5.0377
   15.810    5.6521
   15.945    5.1080
   16.080    5.2308
   16.215    5.1782
   16.350    4.9324
   16.485    5.4766
   16.620    5.5819
   16.755    5.3186
   16.890    5.0026
   17.025    5.7223
   17.160    6.0383
   17.295    5.3712
   17.430    5.1080
   17.565    5.2308
   17.700    5.5994
   17.835    5.3186
   17.970    5.2308
   18.105    5.4941
   18.240    5.3010
   18.375    5.4239
   18.510    5.3010
   18.645    5.3712
   18.780    5.1255
   18.915    5.0202
   19.050    4.8798
   19.185    5.2659
   19.320    5.1431
   19.455    4.8622
   19.590    5.5643
   19.725    4.6516
   19.860    4.6691
   19.995    4.7920
   20.130    5.1431
   20.265    4.9851
   20.400    4.8271
   20.535    4.5989
   20.670    4.5463
   20.805    5.1957
   20.940    4.7218
   21.075    5.2133
   21.210    4.7920
   21.345    5.2659
   21.480    5.3010
   21.615    4.7393
   21.750    4.9675
   21.885    4.8447
   22.020    4.7218
   22.155    4.9851
   22.290    4.6516
   22.425    5.0377
   22.560    4.7744
   22.695    4.1425
   22.830    4.7920
   22.965    5.7399
   23.100    4.5638
   23.235    4.4936
   23.370    4.6165
   23.505    4.5989
   23.640    4.6340
   23.775    4.7042
   23.910    4.4936
   24.045    4.4234
   24.180    4.7569
   24.315    4.5287
   24.450    4.4585
   24.585    4.1074
   24.720    4.1601
   24.855    4.2654
   24.990    4.3356
   25.125    4.1952
   25.260    4.3532
   25.395    4.0021
   25.530    4.0899
   25.665    4.3707
   25.800    4.2478
   25.935    4.2654
   26.070    4.3356
   26.205    3.7037
   26.340    4.4585
   26.475    3.8617
   26.610    4.2478
   26.745    3.6510
   26.880    3.8090
   27.015    4.2654
   27.150    3.7213
   27.285    4.1250
   27.420    3.7213
   27.555    3.4053
   27.690    3.8792
   27.825    3.6159
   27.960    3.6862
   28.095    3.6686
   28.230    3.8792
   28.365    3.5633
   28.500    3.7388
   28.635    3.3702
   28.770    3.3351
   28.905    3.9143
   29.040    3.4755
   29.175    3.2824
   29.310    3.3877
   29.445    3.7915
   29.580    3.0016
   29.715    3.1245
   29.850    3.2122
   29.985    3.4755
   30.120    3.6335
   30.255    3.2122
   30.390    3.2649
   30.525    2.9489
   30.660    3.3877
   30.795    3.1596
   30.930    2.7207
   31.065    3.0191
   31.200    2.6681
   31.335    2.9138
   31.470    3.1596
   31.605    2.7734
   31.740    3.1947
   31.875    2.8787
   32.010    2.7383
   32.145    3.1245
   32.280    2.7909
   32.415    2.7383
   32.550    2.7383
   32.685    3.0016
   32.820    2.6681
   32.955    2.8085
   33.090    2.8436
   33.225    2.4399
   33.360    2.6154
   33.495    2.5979
   33.630    2.9314
   33.765    2.4750
   33.900    2.5979
   34.035    2.7558
   34.170    2.5803
   34.305    2.5452
   34.440    2.5979
   34.575    2.7207
   34.710    2.6154
   34.845    2.8085
   34.980    2.5276
   35.115    2.6154
   35.250    2.6154
   35.385    2.5276
   35.520    2.4223
   35.655    2.5979
   35.790    2.6330
   35.925    2.7558
   36.060    2.5803
   36.195    2.3521
   36.330    2.5628
   36.465    2.6330
   36.600    2.6681
   36.735    2.8085
   36.870    2.3872
   37.005    2.4048
   37.140    2.8260
   37.275    2.6681
   37.410    2.2292
   37.545    2.5452
   37.680    2.7734
   37.815    2.4750
   37.950    2.3872
   38.085    2.4399
   38.220    2.4399
   38.355    2.4223
   38.490    2.7207
   38.625    2.4048
   38.760    2.4048
   38.895    2.4048
   39.030    2.4048
   39.165    2.5452
   39.300    2.3521
   39.435    2.5101
   39.570    2.4750
   39.705    2.2819
   39.840    2.4223
   39.975    2.1941
   39.990    2.1766