File: data/MOCOF-1/PXRD/PXRD_KE-009_Cu-Ka1_capillary-1mm_5s-deg.xyd
    1.500   40.8110
    1.635   36.7141
    1.770   30.9847
    1.905   26.7509
    2.040   24.0864
    2.175   20.7478
    2.310   19.6630
    2.445   17.7357
    2.580   16.8931
    2.715   15.7662
    2.850   14.6603
    2.985   14.1654
    3.120   13.3649
    3.255   13.0174
    3.390   12.3012
    3.525   11.4271
    3.660   10.9215
    3.795   11.2375
    3.930   10.7214
    4.065   10.1738
    4.200    9.5735
    4.335   10.0158
    4.470    9.5735
    4.605    9.8684
    4.740    9.2470
    4.875    9.2154
    5.010    8.7730
    5.145    8.9310
    5.280    9.4997
    5.415    8.4887
    5.550    8.7625
    5.685    8.4044
    5.820    9.0469
    5.955    8.2886
    6.090    8.6572
    6.225    8.3834
    6.360    8.2780
    6.495    8.4992
    6.630    8.7098
    6.765    8.3939
    6.900    8.5940
    7.035    8.8889
    7.170    8.4676
    7.305    8.8573
    7.440    8.6256
    7.575    8.2043
    7.710    8.7098
    7.845    8.4887
    7.980    8.2570
    8.115    8.4992
    8.250    8.9415
    8.385    8.8889
    8.520    8.5940
    8.655    8.8257
    8.790    9.1732
    8.925    9.3207
    9.060    8.8573
    9.195    9.1311
    9.330    9.1943
    9.465    9.2680
    9.600    9.1943
    9.735    9.3207
    9.870    9.1627
   10.005    8.7204
   10.140    9.5208
   10.275    9.0363
   10.410    9.3102
   10.545    9.1206
   10.680    9.1627
   10.815    8.8257
   10.950    8.6256
   11.085    8.6783
   11.220    8.7941
   11.355    8.6045
   11.490    8.1938
   11.625    8.1938
   11.760    8.2886
   11.895    8.5203
   12.030    8.2043
   12.165    8.1306
   12.300    7.9094
   12.435    8.1727
   12.570    7.9200
   12.705    7.5935
   12.840    7.5303
   12.975    7.7830
   13.110    7.7199
   13.245    7.9410
   13.380    7.4987
   13.515    7.5092
   13.650    7.7620
   13.785    7.3618
   13.920    7.6251
   14.055    7.2880
   14.190    7.3091
   14.325    7.9094
   14.460    7.5303
   14.595    7.6567
   14.730    7.6672
   14.865    7.4566
   15.000    7.4250
   15.135    7.2986
   15.270    7.6883
   15.405    7.4566
   15.540    7.6040
   15.675    7.6461
   15.810    7.4144
   15.945    7.4671
   16.080    7.5303
   16.215    7.8989
   16.350    7.8778
   16.485    7.8357
   16.620    7.6988
   16.755    7.6777
   16.890    7.6777
   17.025    7.7725
   17.160    7.4987
   17.295    7.3723
   17.430    7.8146
   17.565    7.8989
   17.700    7.8568
   17.835    8.3834
   17.970    9.2048
   18.105    8.6572
   18.240    7.9410
   18.375    7.8673
   18.510    7.6988
   18.645    8.1306
   18.780    7.5724
   18.915    7.7936
   19.050    8.0569
   19.185    8.0253
   19.320    7.6251
   19.455    7.7936
   19.590    7.5408
   19.725    8.0463
   19.860    7.4566
   19.995    7.5513
   20.130    8.1727
   20.265    7.9305
   20.400    7.6777
   20.535    8.0358
   20.670    7.8041
   20.805    7.6040
   20.940    7.7409
   21.075    7.7409
   21.210    7.8989
   21.345    8.2991
   21.480    7.6988
   21.615    8.1938
   21.750    8.0147
   21.885    7.6777
   22.020    8.1306
   22.155    7.9621
   22.290    7.7830
   22.425    8.2675
   22.560    8.0147
   22.695    8.1517
   22.830    8.5519
   22.965    8.1306
   23.100    7.5408
   23.235    7.5935
   23.370    8.1306
   23.505    8.1833
   23.640    7.6145
   23.775    7.9516
   23.910    7.7830
   24.045    7.2354
   24.180    7.9410
   24.315    7.8357
   24.450    7.8252
   24.585    8.0042
   24.720    7.5303
   24.855    7.8462
   24.990    7.5829
   25.125    7.7093
   25.260    7.8041
   25.395    7.3196
   25.530    7.7936
   25.665    7.4776
   25.800    7.8146
   25.935    7.4776
   26.070    7.1406
   26.205    7.4355
   26.340    7.3407
   26.475    6.8562
   26.610    7.6883
   26.745    7.4144
   26.880    7.7620
   27.015    7.0563
   27.150    7.0037
   27.285    6.8141
   27.420    7.1090
   27.555    7.3091
   27.690    6.8984
   27.825    6.9826
   27.960    7.0774
   28.095    7.1722
   28.230    6.7404
   28.365    7.0037
   28.500    7.0563
   28.635    6.5298
   28.770    6.4034
   28.905    6.8036
   29.040    6.7193
   29.175    6.8141
   29.310    6.7088
   29.445    6.8668
   29.580    6.6140
   29.715    6.5719
   29.850    6.7720
   29.985    6.6561
   30.120    6.7088
   30.255    6.8141
   30.390    6.8246
   30.525    6.6245
   30.660    6.3928
   30.795    5.9189
   30.930    6.3928
   31.065    6.2559
   31.200    6.3507
   31.335    6.2243
   31.470    6.1927
   31.605    6.6140
   31.740    6.2454
   31.875    6.3612
   32.010    6.1295
   32.145    6.0137
   32.280    6.1295
   32.415    6.1085
   32.550    5.9926
   32.685    6.2243
   32.820    5.6345
   32.955    5.6872
   33.090    6.0874
   33.225    6.6140
   33.360    5.8136
   33.495    5.8347
   33.630    5.7188
   33.765    6.0664
   33.900    5.7820
   34.035    5.8452
   34.170    6.0558
   34.305    5.7083
   34.440    5.7925
   34.575    5.8241
   34.710    5.6029
   34.845    5.8873
   34.980    6.0874
   35.115    5.5503
   35.250    5.7293
   35.385    5.5292
   35.520    5.6661
   35.655    5.6872
   35.790    5.4766
   35.925    5.7399
   36.060    5.3607
   36.195    5.4555
   36.330    5.3923
   36.465    5.5503
   36.600    5.4660
   36.735    5.3397
   36.870    5.5819
   37.005    5.6135
   37.140    4.9921
   37.275    5.0974
   37.410    5.7293
   37.545    5.6872
   37.680    5.5398
   37.815    5.3502
   37.950    5.6977
   38.085    5.2449
   38.220    5.2449
   38.355    5.3818
   38.490    5.2238
   38.625    5.3712
   38.760    5.5398
   38.895    5.3607
   39.030    5.1606
   39.165    5.2449
   39.300    5.6556
   39.435    5.2975
   39.570    5.2659
   39.705    4.8868
   39.840    4.9394
   39.975    5.3397
   39.990    5.2027