File: data/MOCOF-1/PXRD/PXRD_KE-242_Co-Ka1_capillary-1mm_5s-deg.xyd
    1.500    2.7073
    1.635    2.3007
    1.770    1.8727
    1.905    1.5302
    2.040    1.5088
    2.175    1.0487
    2.310    1.1985
    2.445    1.2948
    2.580    0.9203
    2.715    0.9845
    2.850    0.9631
    2.985    0.7063
    3.120    0.7384
    3.255    0.7170
    3.390    0.7277
    3.525    0.7170
    3.660    0.7491
    3.795    1.0380
    3.930    1.1878
    4.065    1.7014
    4.200    3.2210
    4.335    6.8165
    4.470   18.7587
    4.605    1.8941
    4.740    0.7598
    4.875    0.5886
    5.010    0.4494
    5.145    0.4387
    5.280    0.5029
    5.415    0.5457
    5.550    0.5457
    5.685    0.6207
    5.820    0.6956
    5.955    0.6635
    6.090    0.6421
    6.225    1.0380
    6.360    2.7715
    6.495    0.6635
    6.630    0.5136
    6.765    0.5029
    6.900    0.4708
    7.035    0.5136
    7.170    0.3959
    7.305    0.4708
    7.440    0.4708
    7.575    0.6207
    7.710    0.7812
    7.845    2.3649
    7.980    0.5029
    8.115    0.4708
    8.250    0.4173
    8.385    0.4922
    8.520    0.5350
    8.655    0.5029
    8.790    0.4815
    8.925    0.7170
    9.060    1.9690
    9.195    0.5457
    9.330    0.4494
    9.465    0.5029
    9.600    0.5029
    9.735    0.5136
    9.870    0.4601
   10.005    0.4922
   10.140    0.8240
   10.275    0.4280
   10.410    0.5243
   10.545    0.4601
   10.680    0.5350
   10.815    0.4708
   10.950    0.5993
   11.085    2.8464
   11.220    0.5993
   11.355    0.6100
   11.490    0.4387
   11.625    0.4601
   11.760    0.5778
   11.895    0.8989
   12.030    2.2258
   12.165    0.4601
   12.300    0.5029
   12.435    0.4922
   12.570    0.4708
   12.705    0.5564
   12.840    1.7764
   12.975    0.3852
   13.110    0.5243
   13.245    0.4922
   13.380    0.4280
   13.515    0.6314
   13.650    1.8299
   13.785    0.4173
   13.920    0.3852
   14.055    0.4280
   14.190    0.4601
   14.325    0.4601
   14.460    0.4173
   14.595    0.3210
   14.730    0.3424
   14.865    0.4173
   15.000    0.7170
   15.135    0.9417
   15.270    0.5350
   15.405    0.3745
   15.540    0.4601
   15.675    0.4815
   15.810    0.6956
   15.945    0.4815
   16.080    0.4280
   16.215    0.3852
   16.350    0.6956
   16.485    0.5243
   16.620    0.3959
   16.755    0.3531
   16.890    0.2782
   17.025    0.4815
   17.160    0.3745
   17.295    0.3745
   17.430    0.5243
   17.565    0.4708
   17.700    0.4387
   17.835    0.4494
   17.970    0.4173
   18.105    0.2568
   18.240    0.3638
   18.375    0.3852
   18.510    0.3210
   18.645    0.4494
   18.780    0.8026
   18.915    0.3424
   19.050    0.4387
   19.185    0.4922
   19.320    0.8668
   19.455    0.5029
   19.590    0.4494
   19.725    0.3852
   19.860    1.0380
   19.995    0.4815
   20.130    0.4387
   20.265    0.3638
   20.400    0.3424
   20.535    0.3852
   20.670    0.3103
   20.805    0.4173
   20.940    0.5350
   21.075    0.4815
   21.210    0.4173
   21.345    0.5564
   21.480    0.5564
   21.615    0.4066
   21.750    0.3852
   21.885    0.5350
   22.020    0.4601
   22.155    0.4280
   22.290    0.3638
   22.425    0.4708
   22.560    0.3638
   22.695    0.5243
   22.830    0.7705
   22.965    0.4494
   23.100    0.3852
   23.235    0.3210
   23.370    0.5029
   23.505    0.5564
   23.640    0.3531
   23.775    0.9203
   23.910    0.3852
   24.045    0.3531
   24.180    0.5136
   24.315    0.4922
   24.450    0.4708
   24.585    0.3745
   24.720    0.4922
   24.855    0.4815
   24.990    0.4494
   25.125    0.5243
   25.260    0.5350
   25.395    0.4815
   25.530    0.7491
   25.665    0.3638
   25.800    0.6421
   25.935    0.6207
   26.070    0.5243
   26.205    0.7170
   26.340    1.1878
   26.475    0.6421
   26.610    0.6100
   26.745    1.1450
   26.880    0.5778
   27.015    0.6100
   27.150    0.6421
   27.285    0.4173
   27.420    0.4494
   27.555    0.5029
   27.690    0.4494
   27.825    0.6742
   27.960    0.6849
   28.095    0.5029
   28.230    0.5029
   28.365    0.5350
   28.500    0.4173
   28.635    0.5457
   28.770    0.4601
   28.905    0.4173
   29.040    0.5136
   29.175    0.5243
   29.310    0.5029
   29.445    0.4922
   29.580    0.5671
   29.715    0.6207
   29.850    0.4922
   29.985    0.5778
   30.120    0.8989
   30.255    0.5457
   30.390    0.4815
   30.525    0.4815
   30.660    0.3424
   30.795    0.5671
   30.930    0.4494
   31.065    0.3531
   31.200    0.3959
   31.335    0.4708
   31.470    0.5886
   31.605    0.5564
   31.740    0.3317
   31.875    0.3745
   32.010    0.4922
   32.145    0.4280
   32.280    0.5778
   32.415    0.4601
   32.550    0.5029
   32.685    0.4280
   32.820    0.5778
   32.955    0.4173
   33.090    0.4387
   33.225    0.4708
   33.360    0.4280
   33.495    0.5029
   33.630    0.3852
   33.765    0.3210
   33.900    0.4601
   34.035    0.4280
   34.170    0.5778
   34.305    0.4066
   34.440    0.3959
   34.575    0.3424
   34.710    0.3210
   34.845    0.4601
   34.980    0.5243
   35.115    0.4280
   35.250    0.4066
   35.385    0.3745
   35.520    0.3852
   35.655    0.2568
   35.790    0.4922
   35.925    0.2675
   36.060    0.3638
   36.195    0.3959
   36.330    0.2782
   36.465    0.2889
   36.600    0.3317
   36.735    0.4387
   36.870    0.2889
   37.005    0.3103
   37.140    0.2996
   37.275    0.3959
   37.410    0.2461
   37.545    0.2675
   37.680    0.2889
   37.815    0.2354
   37.950    0.2675
   38.085    0.2889
   38.220    0.2889
   38.355    0.3424
   38.490    0.3531
   38.625    0.2782
   38.760    0.2996
   38.895    0.2354
   39.030    0.3531
   39.165    0.1926
   39.300    0.2889
   39.435    0.3531
   39.570    0.3531
   39.705    0.3103
   39.840    0.3210
   39.975    0.2033
   39.990    0.2461