File: data/MOCOF-1/PXRD/PXRD_KE-158_Cu-Ka1_capillary-1mm_5s-deg.xyd
    1.500   22.6224
    1.635   21.2112
    1.770   19.2101
    1.905   18.4623
    2.040   17.1669
    2.175   16.7667
    2.310   15.9242
    2.445   16.1875
    2.580   16.4086
    2.715   16.9563
    2.850   18.4834
    2.985   20.9689
    3.120   23.4229
    3.255   27.2143
    3.390   33.3544
    3.525   43.5703
    3.660   63.6756
    3.795  109.7525
    3.930   88.1095
    4.065   13.1016
    4.200    9.7525
    4.335    9.2891
    4.470    9.2364
    4.605    9.4050
    4.740    9.5524
    4.875   10.1948
    5.010   10.6161
    5.145   12.3223
    5.280   15.7241
    5.415   24.0969
    5.550   22.6014
    5.685    7.9200
    5.820    7.8568
    5.955    7.8989
    6.090    8.2254
    6.225    7.6567
    6.360    7.8252
    6.495    8.8046
    6.630    9.6156
    6.765   11.4587
    6.900    7.8462
    7.035    7.9094
    7.170    7.7409
    7.305    8.2991
    7.440    8.0253
    7.575    8.4255
    7.710   11.2691
    7.845   11.2375
    7.980    7.6356
    8.115    7.3091
    8.250    7.3618
    8.385    7.7725
    8.520    7.7199
    8.655    7.8778
    8.790    7.8357
    8.925    7.8041
    9.060    7.6777
    9.195    8.4150
    9.330    9.4681
    9.465   14.0600
    9.600   16.6403
    9.735    7.9094
    9.870    7.4882
   10.005    8.1201
   10.140    8.7414
   10.275   10.5740
   10.410    8.5203
   10.545    7.7304
   10.680    7.4144
   10.815    7.8146
   10.950    9.4787
   11.085   10.6056
   11.220    7.7409
   11.355    7.3196
   11.490    8.2043
   11.625    9.3734
   11.760   10.4371
   11.895    7.6777
   12.030    7.1195
   12.165    6.9405
   12.300    7.4987
   12.435    7.5829
   12.570    6.9510
   12.705    6.8878
   12.840    8.0253
   12.975    9.6788
   13.110    7.3618
   13.245    7.0879
   13.380    7.6461
   13.515    8.8152
   13.650    6.9721
   13.785    6.8878
   13.920    7.4460
   14.055    8.3518
   14.190    7.5408
   14.325    6.7088
   14.460    6.5613
   14.595    6.9405
   14.730    6.7404
   14.865    6.6983
   15.000    7.1827
   15.135    7.4671
   15.270    7.2565
   15.405    6.6772
   15.540    6.6140
   15.675    7.0669
   15.810    6.6561
   15.945    7.2775
   16.080    7.8462
   16.215    7.6251
   16.350    7.6567
   16.485    7.2670
   16.620    8.3412
   16.755    6.9616
   16.890    7.5408
   17.025    8.3518
   17.160    7.9831
   17.295    6.5824
   17.430    7.4039
   17.565    7.4355
   17.700    7.0353
   17.835    7.0985
   17.970    7.4144
   18.105    7.1301
   18.240    6.7930
   18.375    7.4566
   18.510    7.0985
   18.645    6.9826
   18.780    7.2249
   18.915    7.2459
   19.050    7.3302
   19.185    6.8773
   19.320    6.9721
   19.455    7.4671
   19.590    7.4250
   19.725    7.3407
   19.860    7.0353
   19.995    6.6351
   20.130    7.0563
   20.265    7.5935
   20.400    8.9310
   20.535    7.2565
   20.670    6.9616
   20.805    7.2143
   20.940    7.0037
   21.075    7.1406
   21.210    7.3091
   21.345    6.7615
   21.480    6.9721
   21.615    6.6035
   21.750    6.9721
   21.885    7.6461
   22.020    7.0985
   22.155    7.3934
   22.290    7.6672
   22.425    7.4882
   22.560    8.4992
   22.695    8.1095
   22.830    7.2459
   22.965    9.1206
   23.100    7.5724
   23.235    7.7936
   23.370    7.1406
   23.505    7.0248
   23.640    6.9932
   23.775    6.8562
   23.910    7.4250
   24.045    7.0248
   24.180    7.0458
   24.315    7.0353
   24.450    6.9826
   24.585    7.1195
   24.720    6.9616
   24.855    7.3302
   24.990    7.0879
   25.125    6.8668
   25.260    7.3302
   25.395    6.7720
   25.530    7.1511
   25.665    7.1511
   25.800    7.8673
   25.935    7.9305
   26.070    6.7825
   26.205    7.2354
   26.340    6.9826
   26.475    7.2775
   26.610    6.6351
   26.745    6.7930
   26.880    6.7299
   27.015    7.7620
   27.150    7.0248
   27.285    7.3512
   27.420    6.6035
   27.555    6.5929
   27.690    7.2459
   27.825    6.8352
   27.960    7.3407
   28.095    7.0563
   28.230    7.2354
   28.365    6.8457
   28.500    7.2143
   28.635    6.4982
   28.770    7.2038
   28.905    6.3612
   29.040    6.6456
   29.175    6.9089
   29.310    7.3091
   29.445    6.8562
   29.580    6.6351
   29.715    6.3191
   29.850    6.3928
   29.985    6.6561
   30.120    6.3191
   30.255    6.7615
   30.390    6.6456
   30.525    6.6351
   30.660    6.6140
   30.795    6.6351
   30.930    6.3612
   31.065    6.6772
   31.200    6.2243
   31.335    6.7088
   31.470    6.4982
   31.605    6.4982
   31.740    6.8562
   31.875    6.5613
   32.010    6.4455
   32.145    6.9932
   32.280    6.2981
   32.415    6.4244
   32.550    6.3402
   32.685    5.9821
   32.820    6.0558
   32.955    6.1506
   33.090    6.3296
   33.225    6.0979
   33.360    5.8347
   33.495    5.9400
   33.630    6.0664
   33.765    6.6140
   33.900    6.1085
   34.035    6.0874
   34.170    5.9926
   34.305    5.6029
   34.440    6.3402
   34.575    6.1295
   34.710    6.0558
   34.845    5.4028
   34.980    6.0348
   35.115    5.4660
   35.250    5.8031
   35.385    5.8031
   35.520    5.9084
   35.655    5.6345
   35.790    5.2449
   35.925    6.0453
   36.060    5.7609
   36.195    5.7715
   36.330    5.9294
   36.465    5.7715
   36.600    5.5398
   36.735    5.3291
   36.870    5.4976
   37.005    5.6977
   37.140    5.8452
   37.275    6.1611
   37.410    5.7504
   37.545    5.7399
   37.680    6.0242
   37.815    5.8873
   37.950    5.6661
   38.085    5.5924
   38.220    5.9505
   38.355    5.9610
   38.490    6.0032
   38.625    5.9505
   38.760    6.0769
   38.895    6.0874
   39.030    6.0242
   39.165    5.9610
   39.300    6.2349
   39.435    6.1506
   39.570    5.7504
   39.705    5.5608
   39.840    5.9821
   39.975    6.0032
   39.990    5.8557