File: data/MOCOF-1/PXRD/PXRD_KE-060-3_Cu-Ka1_capillary-1mm_5s-deg.xyd
    1.500   14.5866
    1.635   13.2491
    1.770   11.1954
    1.905   10.5635
    2.040    9.2680
    2.175    9.0258
    2.310    8.1201
    2.445    8.0463
    2.580    7.7304
    2.715    7.2038
    2.850    7.7199
    2.985    7.2249
    3.120    7.9410
    3.255    7.8568
    3.390    8.6572
    3.525    8.9731
    3.660   10.0685
    3.795   13.4808
    3.930   11.6482
    4.065    6.8246
    4.200    6.8141
    4.335    7.1827
    4.470    6.6983
    4.605    6.6351
    4.740    6.6667
    4.875    6.6035
    5.010    6.9510
    5.145    6.8246
    5.280    7.2775
    5.415    7.5935
    5.550    7.9726
    5.685    6.4771
    5.820    6.7193
    5.955    6.8141
    6.090    6.6877
    6.225    6.2665
    6.360    6.9932
    6.495    7.2880
    6.630    7.7725
    6.765    9.0574
    6.900    6.7088
    7.035    6.7720
    7.170    6.6035
    7.305    6.7404
    7.440    6.8878
    7.575    6.7509
    7.710    7.1511
    7.845    7.6883
    7.980    6.9510
    8.115    6.8668
    8.250    7.2249
    8.385    7.1301
    8.520    7.1195
    8.655    7.3828
    8.790    7.2038
    8.925    7.2354
    9.060    7.7199
    9.195    8.1095
    9.330    8.7520
    9.465    9.6998
    9.600    9.6156
    9.735    7.0458
    9.870    6.7720
   10.005    7.7830
   10.140    8.1622
   10.275    9.2891
   10.410    7.8989
   10.545    7.4144
   10.680    6.9932
   10.815    7.2565
   10.950    7.4671
   11.085    8.2886
   11.220    6.9616
   11.355    6.9510
   11.490    6.9300
   11.625    7.7514
   11.760    8.4360
   11.895    6.4982
   12.030    6.4876
   12.165    6.8562
   12.300    6.9616
   12.435    6.7930
   12.570    6.4982
   12.705    6.8878
   12.840    7.1722
   12.975    7.9937
   13.110    6.7404
   13.245    6.2559
   13.380    6.4244
   13.515    6.9932
   13.650    6.5613
   13.785    6.6035
   13.920    6.3402
   14.055    7.1406
   14.190    6.4350
   14.325    6.4982
   14.460    6.3928
   14.595    6.2454
   14.730    6.4666
   14.865    6.6351
   15.000    6.6772
   15.135    6.9721
   15.270    6.6983
   15.405    6.2665
   15.540    6.1611
   15.675    6.5087
   15.810    6.1085
   15.945    6.8457
   16.080    6.7615
   16.215    6.4771
   16.350    6.4666
   16.485    6.4982
   16.620    6.8036
   16.755    6.2138
   16.890    6.7720
   17.025    7.0879
   17.160    7.3196
   17.295    6.5824
   17.430    6.7930
   17.565    6.8036
   17.700    6.4350
   17.835    6.7193
   17.970    6.6561
   18.105    6.8036
   18.240    6.9721
   18.375    6.6667
   18.510    6.5719
   18.645    6.4982
   18.780    6.8457
   18.915    6.5192
   19.050    6.8141
   19.185    6.9932
   19.320    6.6245
   19.455    6.5403
   19.590    7.0248
   19.725    6.7299
   19.860    6.7720
   19.995    6.8036
   20.130    6.6667
   20.265    6.5508
   20.400    7.2986
   20.535    7.4144
   20.670    6.9194
   20.805    7.3196
   20.940    6.8668
   21.075    6.9932
   21.210    6.8773
   21.345    7.0458
   21.480    6.6351
   21.615    6.8668
   21.750    7.2354
   21.885    7.2775
   22.020    6.9616
   22.155    7.5513
   22.290    6.8984
   22.425    7.1195
   22.560    8.1517
   22.695    7.2986
   22.830    7.3618
   22.965    7.9410
   23.100    7.2143
   23.235    7.0774
   23.370    7.2354
   23.505    7.4355
   23.640    7.6461
   23.775    7.1827
   23.910    6.9721
   24.045    7.4250
   24.180    6.9616
   24.315    6.8457
   24.450    7.1617
   24.585    7.3407
   24.720    7.2249
   24.855    7.3512
   24.990    6.9300
   25.125    6.8878
   25.260    6.7615
   25.395    7.3407
   25.530    7.4144
   25.665    7.0142
   25.800    7.5724
   25.935    7.2986
   26.070    6.7825
   26.205    7.0142
   26.340    6.9194
   26.475    6.8773
   26.610    6.9194
   26.745    6.8457
   26.880    6.9194
   27.015    7.2565
   27.150    7.0458
   27.285    6.5719
   27.420    6.6351
   27.555    6.4666
   27.690    7.1827
   27.825    7.0563
   27.960    6.8668
   28.095    6.9721
   28.230    7.1933
   28.365    6.5613
   28.500    6.6245
   28.635    6.2349
   28.770    6.5929
   28.905    6.7193
   29.040    6.3612
   29.175    6.5298
   29.310    6.3086
   29.445    6.7088
   29.580    6.4771
   29.715    6.2243
   29.850    6.2349
   29.985    6.4666
   30.120    6.2770
   30.255    6.5613
   30.390    6.4350
   30.525    6.1085
   30.660    5.9084
   30.795    6.0979
   30.930    5.5398
   31.065    6.2454
   31.200    6.2770
   31.335    6.0979
   31.470    6.4771
   31.605    6.3928
   31.740    6.1190
   31.875    6.3086
   32.010    6.3402
   32.145    6.6351
   32.280    5.8136
   32.415    5.8452
   32.550    5.8557
   32.685    5.8662
   32.820    5.8978
   32.955    6.0453
   33.090    5.6451
   33.225    5.5924
   33.360    5.8241
   33.495    5.4660
   33.630    5.8873
   33.765    5.7715
   33.900    6.1822
   34.035    5.8031
   34.170    5.3712
   34.305    5.3502
   34.440    5.5714
   34.575    5.6240
   34.710    5.2870
   34.845    5.7083
   34.980    4.9816
   35.115    5.2238
   35.250    5.8452
   35.385    5.4344
   35.520    5.2870
   35.655    5.3397
   35.790    5.7925
   35.925    5.4450
   36.060    5.4028
   36.195    5.1080
   36.330    5.6029
   36.465    5.6556
   36.600    5.1606
   36.735    5.4239
   36.870    5.2133
   37.005    5.0869
   37.140    5.2238
   37.275    5.2659
   37.410    5.5608
   37.545    5.2238
   37.680    5.0448
   37.815    5.1711
   37.950    5.3818
   38.085    5.2870
   38.220    5.3502
   38.355    5.1711
   38.490    5.1395
   38.625    5.3081
   38.760    4.9816
   38.895    5.0237
   39.030    5.0658
   39.165    5.0658
   39.300    5.6661
   39.435    5.2343
   39.570    4.9605
   39.705    5.3186
   39.840    5.1290
   39.975    5.1290
   39.990    5.4450