File: data/MOCOF-1/PXRD/PXRD_KE-225_Co-Ka1_film-3mm_5s-deg.xyd
    1.500    3.2210
    1.635    2.8785
    1.770    2.5361
    1.905    2.1509
    2.040    2.0225
    2.175    2.0760
    2.310    1.9690
    2.445    1.7442
    2.580    1.9797
    2.715    1.5409
    2.850    1.5409
    2.985    1.6265
    3.120    1.7978
    3.255    1.6372
    3.390    1.4874
    3.525    1.3697
    3.660    1.4339
    3.795    1.4981
    3.930    1.5409
    4.065    1.4446
    4.200    1.4660
    4.335    1.4125
    4.470    1.4125
    4.605    1.3269
    4.740    1.5944
    4.875    1.3911
    5.010    1.5730
    5.145    1.9155
    5.280    1.4446
    5.415    1.5837
    5.550    1.6800
    5.685    1.4874
    5.820    1.5623
    5.955    1.6479
    6.090    1.7764
    6.225    2.0546
    6.360    1.8834
    6.495    2.1723
    6.630    2.0760
    6.765    1.6800
    6.900    1.6800
    7.035    1.4981
    7.170    1.2306
    7.305    1.3269
    7.440    1.2627
    7.575    1.2413
    7.710    1.3911
    7.845    1.2734
    7.980    1.4018
    8.115    1.1129
    8.250    1.2627
    8.385    1.0915
    8.520    0.9738
    8.655    1.1022
    8.790    0.9417
    8.925    1.1343
    9.060    1.1450
    9.195    0.8882
    9.330    0.8989
    9.465    1.0059
    9.600    0.7812
    9.735    0.9524
    9.870    0.9096
   10.005    0.8989
   10.140    0.9096
   10.275    0.9096
   10.410    0.8026
   10.545    0.9631
   10.680    0.7812
   10.815    0.9096
   10.950    0.8454
   11.085    0.9738
   11.220    0.9738
   11.355    0.8133
   11.490    0.8882
   11.625    0.9310
   11.760    0.8989
   11.895    0.9524
   12.030    0.8882
   12.165    0.9417
   12.300    0.8668
   12.435    0.8347
   12.570    0.8989
   12.705    0.8240
   12.840    0.9524
   12.975    0.9631
   13.110    0.9631
   13.245    0.9310
   13.380    0.8347
   13.515    0.9203
   13.650    0.8882
   13.785    0.8989
   13.920    0.7491
   14.055    0.9203
   14.190    0.7705
   14.325    1.0166
   14.460    0.8882
   14.595    0.8454
   14.730    0.8347
   14.865    0.7812
   15.000    0.8775
   15.135    0.7384
   15.270    0.7919
   15.405    0.7812
   15.540    0.8133
   15.675    0.8561
   15.810    0.7919
   15.945    0.6956
   16.080    0.8882
   16.215    0.8775
   16.350    0.9310
   16.485    0.8668
   16.620    1.0166
   16.755    1.0059
   16.890    0.9845
   17.025    0.8454
   17.160    0.8989
   17.295    0.8347
   17.430    0.8454
   17.565    0.7812
   17.700    0.8989
   17.835    0.8133
   17.970    0.7491
   18.105    0.9417
   18.240    0.7919
   18.375    0.7384
   18.510    0.6742
   18.645    0.7812
   18.780    0.8668
   18.915    0.7705
   19.050    0.9096
   19.185    0.8668
   19.320    0.8026
   19.455    0.7598
   19.590    0.8347
   19.725    0.7063
   19.860    0.8133
   19.995    0.8561
   20.130    0.7598
   20.265    0.8561
   20.400    0.6100
   20.535    0.8775
   20.670    0.6528
   20.805    0.7598
   20.940    0.8561
   21.075    0.7277
   21.210    0.8882
   21.345    0.8561
   21.480    0.6956
   21.615    0.7277
   21.750    0.7491
   21.885    0.7063
   22.020    0.7919
   22.155    0.8240
   22.290    0.6742
   22.425    0.7170
   22.560    0.6207
   22.695    0.9096
   22.830    0.7491
   22.965    0.8240
   23.100    0.6956
   23.235    0.8561
   23.370    0.6849
   23.505    0.7919
   23.640    0.7170
   23.775    0.7491
   23.910    0.6421
   24.045    0.6742
   24.180    0.6100
   24.315    0.7598
   24.450    0.8989
   24.585    0.6742
   24.720    0.6956
   24.855    0.7277
   24.990    0.7598
   25.125    0.7598
   25.260    0.6100
   25.395    0.6742
   25.530    0.6528
   25.665    0.5886
   25.800    0.6314
   25.935    0.6849
   26.070    0.6635
   26.205    0.4708
   26.340    0.6635
   26.475    0.5993
   26.610    0.6100
   26.745    0.5136
   26.880    0.6100
   27.015    0.5243
   27.150    0.6742
   27.285    0.6100
   27.420    0.5564
   27.555    0.6849
   27.690    0.5886
   27.825    0.6314
   27.960    0.5350
   28.095    0.5243
   28.230    0.5671
   28.365    0.6100
   28.500    0.6100
   28.635    0.5029
   28.770    0.6207
   28.905    0.4494
   29.040    0.4815
   29.175    0.4922
   29.310    0.4922
   29.445    0.5136
   29.580    0.5778
   29.715    0.5778
   29.850    0.5029
   29.985    0.4387
   30.120    0.4494
   30.255    0.6100
   30.390    0.5457
   30.525    0.4922
   30.660    0.4280
   30.795    0.4066
   30.930    0.4601
   31.065    0.5350
   31.200    0.4601
   31.335    0.5778
   31.470    0.4601
   31.605    0.5136
   31.740    0.4815
   31.875    0.4387
   32.010    0.4601
   32.145    0.5671
   32.280    0.4494
   32.415    0.4173
   32.550    0.4280
   32.685    0.4066
   32.820    0.5136
   32.955    0.4066
   33.090    0.4708
   33.225    0.5029
   33.360    0.4173
   33.495    0.4494
   33.630    0.5243
   33.765    0.4387
   33.900    0.3852
   34.035    0.5457
   34.170    0.5136
   34.305    0.4601
   34.440    0.4066
   34.575    0.3531
   34.710    0.3959
   34.845    0.4280
   34.980    0.2675
   35.115    0.5029
   35.250    0.2782
   35.385    0.4708
   35.520    0.2996
   35.655    0.3852
   35.790    0.4066
   35.925    0.2782
   36.060    0.3638
   36.195    0.2354
   36.330    0.3852
   36.465    0.2568
   36.600    0.3424
   36.735    0.3531
   36.870    0.2996
   37.005    0.2889
   37.140    0.4066
   37.275    0.2996
   37.410    0.2996
   37.545    0.2354
   37.680    0.3103
   37.815    0.3317
   37.950    0.3210
   38.085    0.2889
   38.220    0.2889
   38.355    0.3531
   38.490    0.3210
   38.625    0.2675
   38.760    0.2568
   38.895    0.2996
   39.030    0.3103
   39.165    0.2996
   39.300    0.2461
   39.435    0.2354
   39.570    0.2140
   39.705    0.2033
   39.840    0.2889
   39.975    0.2247
   39.990    0.2247