File: data/MOCOF-1/PXRD/PXRD_KE-034_Cu-Ka1_capillary-1mm_5s-deg.xyd
    1.500   38.1991
    1.635   36.5140
    1.770   36.7457
    1.905   36.4086
    2.040   37.7988
    2.175   39.2206
    2.310   41.1164
    2.445   46.5192
    2.580   52.2802
    2.715   59.1680
    2.850   70.0579
    2.985   88.6572
    3.120  115.2396
    3.255  153.3439
    3.390  212.2064
    3.525  229.3839
    3.660  153.1122
    3.795  143.3281
    3.930  133.1438
    4.065   74.2917
    4.200   38.0832
    4.335   25.3291
    4.470   18.7256
    4.605   15.6609
    4.740   12.8489
    4.875   12.3433
    5.010   12.1116
    5.145   11.3323
    5.280   11.2586
    5.415   10.3528
    5.550   10.0579
    5.685    9.4471
    5.820    9.5313
    5.955    9.6261
    6.090    9.7841
    6.225   10.6372
    6.360   11.1954
    6.495   13.1648
    6.630   16.8088
    6.765   23.3491
    6.900   32.5750
    7.035   34.7973
    7.170   21.0743
    7.305   17.2828
    7.440   17.4934
    7.575   19.9157
    7.710   25.5714
    7.845   28.1201
    7.980   22.7172
    8.115   16.7141
    8.250   12.9015
    8.385   10.7846
    8.520    9.8052
    8.655    9.6367
    8.790    8.6467
    8.925    8.4360
    9.060    8.1622
    9.195    8.3096
    9.330    8.6783
    9.465    8.1411
    9.600    7.8146
    9.735    7.7936
    9.870    7.7830
   10.005    7.7620
   10.140    7.7304
   10.275    8.3834
   10.410    8.6888
   10.545    8.8994
   10.680    8.3307
   10.815    8.3307
   10.950    8.2570
   11.085    8.4255
   11.220    8.3834
   11.355    8.8889
   11.490    9.1627
   11.625    9.5735
   11.760   10.1527
   11.895   10.3002
   12.030    9.7736
   12.165    8.7309
   12.300    9.3523
   12.435    8.3518
   12.570    8.7414
   12.705    8.3202
   12.840    8.7204
   12.975    8.6045
   13.110    8.4255
   13.245    8.7098
   13.380    8.2149
   13.515    8.5835
   13.650    8.2254
   13.785    8.0990
   13.920    8.4887
   14.055    8.0147
   14.190    7.9621
   14.325    8.2991
   14.460    8.5413
   14.595    7.7620
   14.730    8.5729
   14.865    8.6151
   15.000    8.1938
   15.135    8.5203
   15.270    8.6045
   15.405    8.2043
   15.540    8.2570
   15.675    8.6256
   15.810    8.6256
   15.945    8.4676
   16.080    8.5097
   16.215    8.0885
   16.350    7.6777
   16.485    7.9410
   16.620    8.0253
   16.755    7.9410
   16.890    7.8252
   17.025    8.0674
   17.160    8.2359
   17.295    7.9200
   17.430    8.1517
   17.565    8.7098
   17.700    8.1938
   17.835    8.5624
   17.970    8.6677
   18.105    8.8994
   18.240    8.8046
   18.375    8.1517
   18.510    8.4571
   18.645    8.0674
   18.780    8.3096
   18.915    8.6783
   19.050    8.4781
   19.185    8.7941
   19.320    8.2043
   19.455    8.9415
   19.590    8.6256
   19.725    8.9837
   19.860    8.8784
   19.995    8.8784
   20.130    9.6472
   20.265    9.2996
   20.400    9.0469
   20.535    9.7736
   20.670    9.7420
   20.805    9.4471
   20.940    9.9421
   21.075    9.9315
   21.210    9.1943
   21.345    9.9842
   21.480    9.5629
   21.615    9.6682
   21.750    9.8473
   21.885   10.4160
   22.020    9.2891
   22.155    9.6577
   22.290    9.9947
   22.425   10.2791
   22.560   10.4792
   22.695   10.4055
   22.830   10.3633
   22.965    9.9947
   23.100    9.4365
   23.235    9.4260
   23.370    9.3102
   23.505    8.8573
   23.640    9.4155
   23.775    9.2048
   23.910    9.2048
   24.045    9.0679
   24.180    9.2364
   24.315    9.1101
   24.450    9.0047
   24.585    9.1206
   24.720    8.7836
   24.855    8.9942
   24.990    8.6572
   25.125    8.5940
   25.260    8.5729
   25.395    8.4044
   25.530    8.5413
   25.665    7.8778
   25.800    8.1938
   25.935    8.2149
   26.070    7.8252
   26.205    8.3518
   26.340    7.8041
   26.475    7.9094
   26.610    7.7093
   26.745    7.8041
   26.880    7.8778
   27.015    7.8884
   27.150    7.9200
   27.285    7.8146
   27.420    7.8989
   27.555    7.4460
   27.690    7.9937
   27.825    7.4355
   27.960    7.6145
   28.095    7.6883
   28.230    8.0358
   28.365    7.8673
   28.500    7.4460
   28.635    7.0248
   28.770    7.7620
   28.905    7.7409
   29.040    7.1722
   29.175    7.5408
   29.310    7.3828
   29.445    7.3618
   29.580    7.0248
   29.715    7.7514
   29.850    7.5619
   29.985    7.3407
   30.120    7.1722
   30.255    7.4250
   30.390    7.6145
   30.525    6.8457
   30.660    6.8457
   30.795    7.1195
   30.930    7.2249
   31.065    7.0037
   31.200    7.1933
   31.335    7.3407
   31.470    6.9510
   31.605    7.2143
   31.740    7.4566
   31.875    7.7304
   32.010    7.0879
   32.145    7.4882
   32.280    7.2565
   32.415    7.3723
   32.550    7.0985
   32.685    6.9721
   32.820    7.3618
   32.955    7.2143
   33.090    6.9721
   33.225    6.6561
   33.360    7.0774
   33.495    6.6561
   33.630    7.1090
   33.765    6.7720
   33.900    7.2038
   34.035    6.7509
   34.170    7.0142
   34.305    6.9089
   34.440    6.7825
   34.575    6.1927
   34.710    6.4666
   34.845    6.7299
   34.980    6.8036
   35.115    6.3823
   35.250    6.6561
   35.385    6.5613
   35.520    6.7930
   35.655    6.7930
   35.790    6.5929
   35.925    6.9932
   36.060    6.7193
   36.195    6.7299
   36.330    6.6456
   36.465    6.1295
   36.600    6.5613
   36.735    6.3612
   36.870    6.3086
   37.005    6.2243
   37.140    6.5613
   37.275    6.6245
   37.410    6.2243
   37.545    6.0242
   37.680    6.5719
   37.815    6.2243
   37.950    6.2349
   38.085    6.3191
   38.220    6.6140
   38.355    6.5824
   38.490    6.6877
   38.625    6.2981
   38.760    6.2243
   38.895    6.3086
   39.030    6.4560
   39.165    6.2875
   39.300    7.0353
   39.435    6.3507
   39.570    6.5824
   39.705    6.2138
   39.840    6.4139
   39.975    6.4244
   39.990    6.4560