File: data/MOCOF-1/PXRD/PXRD_KE-084_Cu-Ka1_capillary-1mm_5s-deg.xyd
    1.500   20.8531
    1.635   19.1890
    1.770   16.9879
    1.905   17.0616
    2.040   17.2407
    2.175   17.1353
    2.310   18.6625
    2.445   19.9368
    2.580   22.4329
    2.715   25.4239
    2.850   31.3955
    2.985   39.4102
    3.120   51.9642
    3.255   74.0179
    3.390  125.0553
    3.525   88.8573
    3.660   39.7683
    3.795   44.5919
    3.930   54.9552
    4.065   61.2217
    4.200   44.8657
    4.335   21.3481
    4.470   12.1432
    4.605    8.6045
    4.740    8.4360
    4.875    6.8246
    5.010    7.1933
    5.145    6.9405
    5.280    6.6456
    5.415    6.6983
    5.550    6.0874
    5.685    6.4034
    5.820    5.8136
    5.955    5.9821
    6.090    6.4350
    6.225    6.2981
    6.360    6.7404
    6.495    7.4566
    6.630    8.6045
    6.765   11.1216
    6.900   18.2517
    7.035   12.3960
    7.170    6.9932
    7.305    6.5403
    7.440    6.6561
    7.575    7.3934
    7.710    7.6777
    7.845    8.7625
    7.980    9.2470
    8.115   10.4792
    8.250    9.9947
    8.385    9.7104
    8.520    8.8046
    8.655    7.8989
    8.790    6.5824
    8.925    6.2033
    9.060    5.7820
    9.195    5.7820
    9.330    5.9294
    9.465    5.6345
    9.600    5.5819
    9.735    5.6556
    9.870    5.5819
   10.005    5.9084
   10.140    5.6977
   10.275    6.1927
   10.410    6.4350
   10.545    6.1295
   10.680    5.7293
   10.815    5.9821
   10.950    5.8136
   11.085    5.5819
   11.220    5.6451
   11.355    5.8136
   11.490    5.8662
   11.625    5.9610
   11.760    5.7399
   11.895    5.8768
   12.030    6.1295
   12.165    6.4455
   12.300    6.1822
   12.435    6.6772
   12.570    6.5087
   12.705    6.1611
   12.840    6.2665
   12.975    6.1401
   13.110    6.0558
   13.245    5.7399
   13.380    6.5087
   13.515    6.0979
   13.650    6.0453
   13.785    5.8768
   13.920    5.7083
   14.055    5.7504
   14.190    5.7715
   14.325    5.8031
   14.460    5.7399
   14.595    5.3607
   14.730    5.5187
   14.865    5.4450
   15.000    5.4555
   15.135    5.4450
   15.270    5.5187
   15.405    5.3712
   15.540    5.6240
   15.675    5.5924
   15.810    5.8241
   15.945    5.7188
   16.080    5.7293
   16.215    5.5398
   16.350    5.5082
   16.485    4.9605
   16.620    5.3818
   16.755    5.1606
   16.890    5.4766
   17.025    5.4450
   17.160    5.6345
   17.295    5.2554
   17.430    5.3291
   17.565    5.2870
   17.700    5.6661
   17.835    5.2870
   17.970    5.6451
   18.105    5.9189
   18.240    5.4766
   18.375    5.7188
   18.510    5.8557
   18.645    5.5924
   18.780    5.2343
   18.915    5.1711
   19.050    5.6135
   19.185    5.8136
   19.320    5.9400
   19.455    6.1190
   19.590    5.8557
   19.725    5.6977
   19.860    6.4560
   19.995    6.2875
   20.130    6.3823
   20.265    6.5929
   20.400    6.1822
   20.535    6.0769
   20.670    6.0032
   20.805    6.0664
   20.940    6.3191
   21.075    6.0558
   21.210    5.8978
   21.345    6.1295
   21.480    6.0558
   21.615    6.0874
   21.750    6.3612
   21.885    6.7825
   22.020    5.9926
   22.155    6.2665
   22.290    6.1927
   22.425    5.9084
   22.560    5.8873
   22.695    6.0453
   22.830    5.9716
   22.965    6.0453
   23.100    6.0137
   23.235    6.4455
   23.370    5.7715
   23.505    5.9716
   23.640    6.0453
   23.775    5.6135
   23.910    5.8452
   24.045    5.9400
   24.180    6.0874
   24.315    5.9189
   24.450    6.1295
   24.585    5.6977
   24.720    5.4976
   24.855    5.8241
   24.990    5.4871
   25.125    5.9926
   25.260    5.3502
   25.395    5.6029
   25.530    5.2343
   25.665    4.9500
   25.800    5.4028
   25.935    5.4660
   26.070    5.5292
   26.205    5.5187
   26.340    5.3186
   26.475    5.6556
   26.610    5.7399
   26.745    5.1395
   26.880    5.2343
   27.015    5.5292
   27.150    5.5292
   27.285    5.2027
   27.420    5.3397
   27.555    5.3818
   27.690    5.2449
   27.825    5.0869
   27.960    5.1711
   28.095    5.0764
   28.230    5.3712
   28.365    5.1606
   28.500    5.0237
   28.635    4.9816
   28.770    5.4028
   28.905    5.0553
   29.040    5.1185
   29.175    5.0448
   29.310    4.9078
   29.445    4.9710
   29.580    5.1395
   29.715    4.8657
   29.850    4.8763
   29.985    5.1290
   30.120    4.7288
   30.255    5.0026
   30.390    4.6235
   30.525    4.9184
   30.660    4.6867
   30.795    4.8236
   30.930    4.9078
   31.065    4.8236
   31.200    4.6761
   31.335    4.6130
   31.470    5.0869
   31.605    4.8341
   31.740    4.9184
   31.875    4.8868
   32.010    4.6867
   32.145    4.5498
   32.280    4.6972
   32.415    4.8763
   32.550    4.5603
   32.685    4.5814
   32.820    4.4339
   32.955    4.7077
   33.090    4.3918
   33.225    4.5603
   33.360    4.5182
   33.495    4.6235
   33.630    4.1180
   33.765    4.2759
   33.900    4.3497
   34.035    4.1601
   34.170    4.4971
   34.305    4.2338
   34.440    4.1917
   34.575    4.3813
   34.710    4.3391
   34.845    3.9705
   34.980    4.0442
   35.115    4.4339
   35.250    4.4971
   35.385    4.1074
   35.520    4.4023
   35.655    4.3181
   35.790    4.3391
   35.925    4.1811
   36.060    4.3497
   36.195    3.8757
   36.330    4.3075
   36.465    3.9916
   36.600    3.9284
   36.735    4.1390
   36.870    4.3286
   37.005    4.2443
   37.140    3.9810
   37.275    3.9389
   37.410    3.8863
   37.545    3.7704
   37.680    4.2338
   37.815    3.8757
   37.950    3.9810
   38.085    3.8757
   38.220    3.9284
   38.355    3.8652
   38.490    3.7388
   38.625    3.8968
   38.760    3.8863
   38.895    4.0126
   39.030    3.8968
   39.165    4.0021
   39.300    3.5914
   39.435    3.6756
   39.570    3.8231
   39.705    3.7599
   39.840    4.0232
   39.975    3.7704
   39.990    4.1706