File: data/MOCOF-1/PXRD/PXRD_KE-136_Cu-Ka1_film-3mm_5s-deg.xyd
    1.500   12.9963
    1.635   11.7114
    1.770    9.9105
    1.905    9.2891
    2.040    8.3728
    2.175    7.6145
    2.310    7.6883
    2.445    6.6140
    2.580    6.5192
    2.715    6.5403
    2.850    6.4666
    2.985    6.6772
    3.120    7.0037
    3.255    7.8252
    3.390   10.6266
    3.525    9.6261
    3.660    6.6561
    3.795    6.4034
    3.930    6.9194
    4.065    7.1406
    4.200    7.5513
    4.335    7.4776
    4.470    6.5824
    4.605    6.2349
    4.740    5.8452
    4.875    5.9926
    5.010    6.0137
    5.145    6.0242
    5.280    6.9826
    5.415    7.3723
    5.550    6.9721
    5.685    7.3407
    5.820    6.3612
    5.955    6.0242
    6.090    5.7715
    6.225    5.4555
    6.360    5.1395
    6.495    4.9394
    6.630    5.1185
    6.765    5.1185
    6.900    5.5714
    7.035    5.3397
    7.170    4.6024
    7.305    4.2865
    7.440    4.2970
    7.575    4.2233
    7.710    4.0232
    7.845    3.9916
    7.980    4.0864
    8.115    3.6862
    8.250    3.7915
    8.385    3.5914
    8.520    3.7177
    8.655    3.7283
    8.790    3.7072
    8.925    3.3386
    9.060    3.1596
    9.195    3.4966
    9.330    3.1174
    9.465    3.2965
    9.600    3.4018
    9.735    3.3913
    9.870    2.9279
   10.005    3.3702
   10.140    3.4860
   10.275    3.5598
   10.410    3.4123
   10.545    3.3597
   10.680    3.6546
   10.815    3.6440
   10.950    3.6124
   11.085    3.6440
   11.220    3.4018
   11.355    3.6651
   11.490    3.3807
   11.625    3.4123
   11.760    3.3913
   11.895    3.3597
   12.030    3.6124
   12.165    3.4439
   12.300    3.1490
   12.435    3.1701
   12.570    3.4755
   12.705    3.3807
   12.840    3.1596
   12.975    3.3175
   13.110    3.1701
   13.245    3.2227
   13.380    3.5492
   13.515    3.4123
   13.650    3.3386
   13.785    3.7388
   13.920    3.5282
   14.055    3.5071
   14.190    3.6967
   14.325    3.8547
   14.460    3.7177
   14.595    3.6651
   14.730    3.5387
   14.865    3.7177
   15.000    3.4018
   15.135    3.3386
   15.270    3.3281
   15.405    3.2017
   15.540    3.0332
   15.675    3.2227
   15.810    3.3281
   15.945    3.3807
   16.080    3.1701
   16.215    3.0648
   16.350    3.1912
   16.485    3.1069
   16.620    3.1912
   16.755    3.3386
   16.890    2.7383
   17.025    3.2543
   17.160    3.1280
   17.295    3.1912
   17.430    3.1069
   17.565    3.2438
   17.700    3.2438
   17.835    3.2333
   17.970    2.9173
   18.105    3.1596
   18.240    3.3175
   18.375    3.2227
   18.510    3.1385
   18.645    2.6962
   18.780    3.5808
   18.915    3.1912
   19.050    3.2227
   19.185    3.1912
   19.320    2.9910
   19.455    2.7699
   19.590    2.9279
   19.725    3.1069
   19.860    2.9068
   19.995    2.9384
   20.130    3.1280
   20.265    2.7804
   20.400    3.0016
   20.535    2.7593
   20.670    2.6224
   20.805    2.8120
   20.940    2.9173
   21.075    2.6962
   21.210    2.8225
   21.345    2.8541
   21.480    2.7699
   21.615    2.7699
   21.750    2.8331
   21.885    2.9173
   22.020    2.5171
   22.155    2.8857
   22.290    2.6330
   22.425    2.6751
   22.560    2.5487
   22.695    2.4223
   22.830    2.5487
   22.965    2.4750
   23.100    2.6014
   23.235    2.6014
   23.370    2.2538
   23.505    2.5908
   23.640    2.1696
   23.775    2.4645
   23.910    2.4013
   24.045    2.2012
   24.180    2.2959
   24.315    2.2433
   24.450    2.2854
   24.585    2.2959
   24.720    2.2538
   24.855    2.2643
   24.990    2.4118
   25.125    2.3275
   25.260    2.2959
   25.395    2.4750
   25.530    2.1274
   25.665    2.0642
   25.800    2.2854
   25.935    2.1380
   26.070    2.2117
   26.205    2.1801
   26.340    2.0748
   26.475    2.0326
   26.610    2.2433
   26.745    2.1380
   26.880    2.0432
   27.015    1.8852
   27.150    2.0116
   27.285    1.9273
   27.420    2.1380
   27.555    2.0326
   27.690    1.9168
   27.825    1.9905
   27.960    2.4223
   28.095    1.9589
   28.230    1.8852
   28.365    2.0642
   28.500    2.0642
   28.635    1.9379
   28.770    1.8747
   28.905    2.5487
   29.040    1.8220
   29.175    1.8641
   29.310    1.7272
   29.445    1.8325
   29.580    1.7694
   29.715    1.6430
   29.850    1.7272
   29.985    1.6956
   30.120    1.4639
   30.255    1.6535
   30.390    1.3902
   30.525    1.8325
   30.660    1.4323
   30.795    1.6114
   30.930    1.4639
   31.065    1.4850
   31.200    1.5061
   31.335    1.4429
   31.470    1.6430
   31.605    1.4955
   31.740    1.5166
   31.875    1.4007
   32.010    1.7694
   32.145    1.4745
   32.280    1.4323
   32.415    1.4113
   32.550    1.3481
   32.685    1.2954
   32.820    1.4007
   32.955    1.3586
   33.090    1.3270
   33.225    1.4323
   33.360    1.3797
   33.495    1.4007
   33.630    1.2217
   33.765    1.4745
   33.900    1.4745
   34.035    1.3060
   34.170    1.2217
   34.305    1.1901
   34.440    1.3481
   34.575    1.0111
   34.710    1.2428
   34.845    1.2006
   34.980    1.2322
   35.115    1.2954
   35.250    1.1901
   35.385    1.2112
   35.520    1.3481
   35.655    1.1269
   35.790    1.3375
   35.925    1.2428
   36.060    1.1796
   36.195    1.2217
   36.330    1.4113
   36.465    1.1480
   36.600    1.2006
   36.735    1.2322
   36.870    1.0427
   37.005    1.2638
   37.140    1.2638
   37.275    0.9373
   37.410    1.3060
   37.545    1.2533
   37.680    1.2638
   37.815    1.2744
   37.950    1.1585
   38.085    1.2849
   38.220    1.3902
   38.355    1.1796
   38.490    1.3375
   38.625    1.2217
   38.760    1.0742
   38.895    1.0005
   39.030    1.0953
   39.165    1.1058
   39.300    1.2112
   39.435    1.1690
   39.570    1.2217
   39.705    1.1796
   39.840    0.9900
   39.975    1.1796
   39.990    0.9900