File: data/MOCOF-1/PXRD/PXRD_KE-313_Cu-Ka1_film-3mm_3s-deg.xyd
    1.500    6.5824
    1.635    6.3367
    1.770    6.4771
    1.905    5.6697
    2.040    5.0377
    2.175    4.8973
    2.310    5.2484
    2.445    4.5463
    2.580    5.0728
    2.715    4.9500
    2.850    5.0553
    2.985    5.6697
    3.120    6.1085
    3.255    7.5829
    3.390   10.2861
    3.525    8.1095
    3.660    5.8978
    3.795    6.1787
    3.930    6.4069
    4.065    6.4946
    4.200    5.8276
    4.335    5.1431
    4.470    5.0202
    4.605    4.6165
    4.740    4.7920
    4.875    4.5638
    5.010    4.5638
    5.145    5.2484
    5.280    5.6521
    5.415    5.9154
    5.550    5.8101
    5.685    5.5292
    5.820    5.1782
    5.955    4.4760
    6.090    4.2830
    6.225    4.2303
    6.360    4.1074
    6.495    3.7388
    6.630    4.2127
    6.765    3.8090
    6.900    3.9319
    7.035    4.0197
    7.170    3.5282
    7.305    3.3175
    7.440    3.2122
    7.575    3.0542
    7.710    3.3000
    7.845    2.9665
    7.980    2.9138
    8.115    3.1947
    8.250    2.8787
    8.385    3.0893
    8.520    2.7383
    8.655    2.9489
    8.790    2.8963
    8.925    2.7383
    9.060    2.5979
    9.195    2.4399
    9.330    2.7558
    9.465    2.0713
    9.600    2.3521
    9.735    2.2643
    9.870    2.5452
   10.005    2.7032
   10.140    2.3872
   10.275    2.4750
   10.410    2.7032
   10.545    2.4574
   10.680    2.5628
   10.815    2.5803
   10.950    2.7207
   11.085    2.6330
   11.220    2.7909
   11.355    3.0542
   11.490    2.6681
   11.625    2.4574
   11.760    2.4399
   11.895    2.4750
   12.030    2.5101
   12.165    2.5803
   12.300    2.6505
   12.435    2.5803
   12.570    2.7383
   12.705    1.9484
   12.840    2.5452
   12.975    2.6681
   13.110    2.7032
   13.245    2.2468
   13.380    2.5979
   13.515    2.5803
   13.650    2.3872
   13.785    2.3521
   13.920    2.5628
   14.055    2.6154
   14.190    2.6856
   14.325    2.6856
   14.460    2.7032
   14.595    2.8436
   14.730    2.6681
   14.865    2.7909
   15.000    2.7558
   15.135    2.5803
   15.270    2.4925
   15.405    2.5452
   15.540    2.5452
   15.675    2.4925
   15.810    2.8436
   15.945    2.5101
   16.080    2.5628
   16.215    2.6681
   16.350    2.1590
   16.485    2.4048
   16.620    2.4750
   16.755    2.2117
   16.890    2.2292
   17.025    2.2117
   17.160    2.4399
   17.295    2.1590
   17.430    2.2117
   17.565    2.5979
   17.700    2.3346
   17.835    2.4925
   17.970    2.4399
   18.105    2.0011
   18.240    2.3170
   18.375    2.3521
   18.510    2.7207
   18.645    2.3697
   18.780    2.3521
   18.915    2.4574
   19.050    2.3170
   19.185    2.1590
   19.320    2.1239
   19.455    2.0888
   19.590    2.3697
   19.725    2.1766
   19.860    2.1239
   19.995    2.3170
   20.130    2.0537
   20.265    2.2292
   20.400    2.2995
   20.535    2.3697
   20.670    2.3697
   20.805    1.9308
   20.940    2.0362
   21.075    2.1766
   21.210    2.1941
   21.345    1.9659
   21.480    2.3170
   21.615    2.2292
   21.750    2.1590
   21.885    2.0186
   22.020    2.0537
   22.155    1.8255
   22.290    2.0713
   22.425    1.9133
   22.560    1.9659
   22.695    2.0362
   22.830    2.0537
   22.965    1.9308
   23.100    1.9308
   23.235    1.7729
   23.370    2.0011
   23.505    1.6851
   23.640    1.5798
   23.775    1.7378
   23.910    1.9659
   24.045    1.7553
   24.180    1.8782
   24.315    1.7553
   24.450    1.6851
   24.585    1.7553
   24.720    1.9308
   24.855    1.8080
   24.990    1.5271
   25.125    1.7202
   25.260    1.6675
   25.395    1.4569
   25.530    1.9133
   25.665    1.5271
   25.800    1.6675
   25.935    1.5622
   26.070    1.6675
   26.205    1.4218
   26.340    1.6149
   26.475    1.6675
   26.610    1.4218
   26.745    1.4394
   26.880    1.4745
   27.015    1.6149
   27.150    1.4569
   27.285    1.4569
   27.420    1.4218
   27.555    1.5271
   27.690    1.6149
   27.825    1.5096
   27.960    1.4745
   28.095    1.4042
   28.230    1.5622
   28.365    1.3867
   28.500    1.3691
   28.635    1.5271
   28.770    1.4218
   28.905    1.4218
   29.040    1.5271
   29.175    1.4218
   29.310    1.2989
   29.445    1.1585
   29.580    1.3516
   29.715    0.9479
   29.850    1.2463
   29.985    1.5798
   30.120    1.0883
   30.255    1.1234
   30.390    1.2463
   30.525    1.0883
   30.660    1.0005
   30.795    1.1234
   30.930    1.1936
   31.065    1.0181
   31.200    1.0005
   31.335    1.1410
   31.470    0.8601
   31.605    1.1058
   31.740    0.9479
   31.875    1.0356
   32.010    0.9303
   32.145    0.9479
   32.280    0.9303
   32.415    1.1410
   32.550    1.0356
   32.685    1.1936
   32.820    0.9479
   32.955    0.9128
   33.090    0.8777
   33.225    1.0181
   33.360    0.9128
   33.495    0.9830
   33.630    0.8250
   33.765    0.8601
   33.900    1.0005
   34.035    0.9654
   34.170    0.9654
   34.305    0.9128
   34.440    0.7021
   34.575    0.9830
   34.710    0.8425
   34.845    1.0532
   34.980    0.9303
   35.115    0.7723
   35.250    0.7899
   35.385    0.9830
   35.520    0.8074
   35.655    0.6670
   35.790    0.7899
   35.925    1.0181
   36.060    0.8250
   36.195    0.8777
   36.330    0.8250
   36.465    0.8250
   36.600    0.8777
   36.735    0.8074
   36.870    0.8601
   37.005    0.8074
   37.140    0.7899
   37.275    0.8074
   37.410    0.8250
   37.545    0.9303
   37.680    0.6846
   37.815    0.8074
   37.950    0.7197
   38.085    0.9303
   38.220    0.8425
   38.355    0.8074
   38.490    0.7197
   38.625    0.9303
   38.760    0.8425
   38.895    0.8074
   39.030    0.8074
   39.165    0.8777
   39.300    0.9479
   39.435    0.7548
   39.570    0.7723
   39.705    0.7899
   39.840    0.8777
   39.975    0.8425
   39.990    0.8425