File: data/MOCOF-1/PXRD/PXRD_KE-311_Cu-Ka1_capillary-1mm_3s-deg.xyd
    1.500   11.1111
    1.635   10.0930
    1.770    8.3728
    1.905    7.6883
    2.040    7.0388
    2.175    6.0207
    2.310    5.2835
    2.445    5.1606
    2.580    4.8447
    2.715    4.7393
    2.850    4.3356
    2.985    4.4936
    3.120    4.3532
    3.255    4.1425
    3.390    3.9670
    3.525    4.2303
    3.660    3.8792
    3.795    3.9494
    3.930    3.8617
    4.065    3.6510
    4.200    3.7388
    4.335    3.5808
    4.470    3.7564
    4.605    3.5282
    4.740    3.4755
    4.875    3.5808
    5.010    3.8266
    5.145    3.6686
    5.280    3.5106
    5.415    3.8090
    5.550    3.3526
    5.685    3.8617
    5.820    3.3526
    5.955    3.8441
    6.090    3.7388
    6.225    3.9143
    6.360    3.7213
    6.495    3.4580
    6.630    3.5984
    6.765    3.7739
    6.900    3.8090
    7.035    3.4580
    7.170    3.4580
    7.305    3.6686
    7.440    3.8266
    7.575    3.8441
    7.710    3.4053
    7.845    3.5808
    7.980    3.6862
    8.115    4.1601
    8.250    3.8617
    8.385    3.7037
    8.520    3.7915
    8.655    3.8617
    8.790    3.9143
    8.925    4.3707
    9.060    4.0372
    9.195    4.3005
    9.330    4.1601
    9.465    3.8617
    9.600    4.4234
    9.735    4.0372
    9.870    4.3356
   10.005    4.2830
   10.140    4.2830
   10.275    4.4058
   10.410    4.2303
   10.545    3.9319
   10.680    3.8090
   10.815    3.9846
   10.950    4.1952
   11.085    3.8792
   11.220    4.1250
   11.355    3.9143
   11.490    3.7213
   11.625    4.4234
   11.760    3.7915
   11.895    3.6335
   12.030    3.7388
   12.165    3.7915
   12.300    3.5633
   12.435    3.4931
   12.570    3.9319
   12.705    3.3000
   12.840    3.8792
   12.975    3.5457
   13.110    3.7739
   13.245    3.5282
   13.380    3.6335
   13.515    3.4580
   13.650    3.7213
   13.785    2.8787
   13.920    3.3702
   14.055    3.6862
   14.190    3.4755
   14.325    3.7915
   14.460    3.3175
   14.595    3.2824
   14.730    3.5106
   14.865    3.4229
   15.000    3.4755
   15.135    3.5984
   15.270    3.6510
   15.405    3.1947
   15.540    2.8436
   15.675    3.8441
   15.810    3.3702
   15.945    3.2824
   16.080    3.4404
   16.215    3.4053
   16.350    3.4755
   16.485    3.8266
   16.620    3.6159
   16.755    3.1947
   16.890    3.5106
   17.025    3.4755
   17.160    3.1947
   17.295    3.3175
   17.430    3.0542
   17.565    3.0191
   17.700    3.6159
   17.835    3.3526
   17.970    3.4931
   18.105    3.3351
   18.240    3.3351
   18.375    3.8617
   18.510    3.0718
   18.645    3.3175
   18.780    3.3000
   18.915    3.3877
   19.050    3.6862
   19.185    3.0016
   19.320    3.6510
   19.455    3.2122
   19.590    3.5457
   19.725    3.1069
   19.860    3.2473
   19.995    3.3526
   20.130    3.6159
   20.265    3.7037
   20.400    3.4404
   20.535    3.7388
   20.670    3.5633
   20.805    3.3000
   20.940    3.8090
   21.075    3.9319
   21.210    3.3351
   21.345    3.3526
   21.480    3.6335
   21.615    3.5282
   21.750    3.4404
   21.885    3.4229
   22.020    3.6686
   22.155    3.8792
   22.290    3.8968
   22.425    3.7213
   22.560    3.6686
   22.695    3.7915
   22.830    3.4404
   22.965    3.9670
   23.100    3.4229
   23.235    3.4229
   23.370    3.7213
   23.505    3.2649
   23.640    3.4580
   23.775    3.6159
   23.910    3.6862
   24.045    3.5633
   24.180    3.7915
   24.315    3.8617
   24.450    3.4580
   24.585    3.6159
   24.720    3.5633
   24.855    3.9319
   24.990    3.5282
   25.125    3.4755
   25.260    3.6862
   25.395    3.4053
   25.530    3.4404
   25.665    3.4404
   25.800    3.2649
   25.935    3.3702
   26.070    3.3000
   26.205    3.0893
   26.340    3.5282
   26.475    3.3702
   26.610    3.5106
   26.745    3.3702
   26.880    3.0893
   27.015    3.1069
   27.150    3.1245
   27.285    3.0542
   27.420    2.9665
   27.555    3.0893
   27.690    3.0718
   27.825    3.1947
   27.960    3.3175
   28.095    3.3526
   28.230    3.5457
   28.365    2.8787
   28.500    3.2298
   28.635    3.5633
   28.770    3.0893
   28.905    3.0016
   29.040    3.2649
   29.175    2.9314
   29.310    3.1069
   29.445    3.0542
   29.580    3.0718
   29.715    3.3702
   29.850    2.9489
   29.985    2.9314
   30.120    3.2122
   30.255    3.0016
   30.390    3.0718
   30.525    2.8963
   30.660    3.1771
   30.795    3.0893
   30.930    2.8436
   31.065    2.8963
   31.200    3.0191
   31.335    2.4750
   31.470    2.5979
   31.605    2.8612
   31.740    3.2473
   31.875    2.6856
   32.010    2.8963
   32.145    3.0718
   32.280    2.6505
   32.415    2.7909
   32.550    2.9840
   32.685    2.9489
   32.820    2.8787
   32.955    2.5803
   33.090    2.8260
   33.225    2.4048
   33.360    2.8612
   33.495    2.6681
   33.630    2.5628
   33.765    2.5628
   33.900    2.8085
   34.035    2.6856
   34.170    2.8260
   34.305    2.3521
   34.440    2.6154
   34.575    2.5628
   34.710    2.4399
   34.845    2.6154
   34.980    2.6856
   35.115    2.8612
   35.250    2.7909
   35.385    2.7558
   35.520    2.2468
   35.655    2.2995
   35.790    2.6681
   35.925    2.3521
   36.060    2.8085
   36.195    2.6330
   36.330    2.4574
   36.465    2.5452
   36.600    2.4750
   36.735    2.3872
   36.870    2.3170
   37.005    2.4574
   37.140    2.8085
   37.275    2.5101
   37.410    2.5803
   37.545    2.4399
   37.680    2.7383
   37.815    2.7558
   37.950    2.5452
   38.085    2.1941
   38.220    2.5979
   38.355    2.5628
   38.490    2.6330
   38.625    2.7909
   38.760    2.2643
   38.895    2.5628
   39.030    2.3170
   39.165    2.5803
   39.300    2.1941
   39.435    2.5452
   39.570    2.4750
   39.705    2.5803
   39.840    2.5276
   39.975    2.2117
   39.990    2.4750