File: data/MOCOF-1/PXRD/PXRD_KE-174_Cu-Ka1_capillary-1mm_5s-deg.xyd
    1.500   27.9621
    1.635   25.1922
    1.770   22.6962
    1.905   20.8847
    2.040   20.2949
    2.175   20.3160
    2.310   21.3481
    2.445   23.2859
    2.580   25.3818
    2.715   29.7209
    2.850   33.5861
    2.985   42.3907
    3.120   55.4186
    3.255   79.8842
    3.390  124.7815
    3.525  115.3765
    3.660   54.6393
    3.795   54.5656
    3.930   59.4945
    4.065   53.1964
    4.200   35.7030
    4.335   22.0958
    4.470   14.8183
    4.605   11.4587
    4.740    9.6367
    4.875    8.8468
    5.010    8.0990
    5.145    7.7936
    5.280    7.1617
    5.415    7.0563
    5.550    7.0353
    5.685    6.6877
    5.820    6.6667
    5.955    6.8668
    6.090    6.8246
    6.225    6.4455
    6.360    7.2038
    6.495    7.8462
    6.630    8.8362
    6.765   10.9321
    6.900   16.8720
    7.035   14.7973
    7.170    9.1838
    7.305    7.8778
    7.440    8.0674
    7.575    8.2254
    7.710    9.3312
    7.845    9.5419
    7.980    9.8789
    8.115   10.3318
    8.250    9.8368
    8.385    9.0153
    8.520    8.5203
    8.655    7.7409
    8.790    7.3618
    8.925    6.6877
    9.060    7.0669
    9.195    6.1401
    9.330    6.2665
    9.465    6.2454
    9.600    5.8557
    9.735    6.1295
    9.870    6.6772
   10.005    6.4876
   10.140    5.7504
   10.275    6.2665
   10.410    6.8246
   10.545    6.3402
   10.680    6.1401
   10.815    6.0453
   10.950    5.6767
   11.085    6.0558
   11.220    5.8136
   11.355    6.2138
   11.490    6.5087
   11.625    5.8662
   11.760    6.6983
   11.895    6.6561
   12.030    6.8457
   12.165    7.1406
   12.300    6.5929
   12.435    6.9194
   12.570    6.6877
   12.705    6.0558
   12.840    6.2559
   12.975    6.1611
   13.110    5.7399
   13.245    6.5824
   13.380    5.8873
   13.515    6.4876
   13.650    6.3507
   13.785    6.3718
   13.920    6.0242
   14.055    6.1085
   14.190    5.9716
   14.325    6.0769
   14.460    6.1717
   14.595    6.3191
   14.730    5.9294
   14.865    5.8873
   15.000    5.7188
   15.135    5.6556
   15.270    5.9610
   15.405    5.8031
   15.540    6.2981
   15.675    6.2349
   15.810    6.0558
   15.945    6.5613
   16.080    6.5192
   16.215    6.6035
   16.350    6.0664
   16.485    5.8031
   16.620    6.0348
   16.755    6.0769
   16.890    5.7609
   17.025    5.6135
   17.160    6.0137
   17.295    6.2138
   17.430    5.7504
   17.565    6.3612
   17.700    6.2665
   17.835    5.8768
   17.970    5.8241
   18.105    5.8662
   18.240    6.3507
   18.375    5.9505
   18.510    6.1190
   18.645    5.5819
   18.780    6.5192
   18.915    6.3402
   19.050    6.4876
   19.185    6.3507
   19.320    6.4666
   19.455    6.4771
   19.590    6.1401
   19.725    6.6140
   19.860    6.4034
   19.995    6.1401
   20.130    6.6456
   20.265    6.4244
   20.400    6.4982
   20.535    6.8984
   20.670    6.7299
   20.805    6.8457
   20.940    6.7193
   21.075    6.9300
   21.210    6.4034
   21.345    6.7299
   21.480    6.2033
   21.615    6.7930
   21.750    6.3928
   21.885    6.3507
   22.020    6.4244
   22.155    7.1617
   22.290    6.9405
   22.425    6.7299
   22.560    6.5508
   22.695    6.9616
   22.830    6.5403
   22.965    6.8246
   23.100    6.6561
   23.235    6.8562
   23.370    6.7088
   23.505    6.6983
   23.640    6.0664
   23.775    6.6772
   23.910    6.2770
   24.045    6.4350
   24.180    6.1927
   24.315    5.9505
   24.450    6.3823
   24.585    6.6456
   24.720    6.3718
   24.855    6.3718
   24.990    5.9084
   25.125    6.4034
   25.260    5.6767
   25.395    6.0453
   25.530    6.1295
   25.665    6.0137
   25.800    6.3718
   25.935    5.9926
   26.070    5.9294
   26.205    5.6767
   26.340    5.9294
   26.475    5.8768
   26.610    5.4766
   26.745    5.6240
   26.880    5.7399
   27.015    5.3923
   27.150    5.4450
   27.285    5.5187
   27.420    5.7715
   27.555    5.6345
   27.690    5.3397
   27.825    5.8031
   27.960    6.1085
   28.095    5.9189
   28.230    5.8662
   28.365    5.5819
   28.500    5.5292
   28.635    5.8031
   28.770    5.0974
   28.905    6.0769
   29.040    5.6872
   29.175    5.3397
   29.310    5.8768
   29.445    5.4660
   29.580    5.6977
   29.715    5.5082
   29.850    5.3818
   29.985    5.3712
   30.120    5.7715
   30.255    5.4660
   30.390    5.4028
   30.525    5.4766
   30.660    5.5187
   30.795    5.7293
   30.930    5.6135
   31.065    5.3397
   31.200    5.2765
   31.335    5.5292
   31.470    5.2343
   31.605    5.2659
   31.740    5.6345
   31.875    5.9084
   32.010    6.2243
   32.145    6.6983
   32.280    5.4660
   32.415    5.3923
   32.550    5.4766
   32.685    5.2449
   32.820    4.7288
   32.955    5.5398
   33.090    5.1185
   33.225    5.1817
   33.360    5.4239
   33.495    5.3291
   33.630    5.2343
   33.765    5.4344
   33.900    5.8452
   34.035    5.0237
   34.170    4.9078
   34.305    4.9289
   34.440    4.9921
   34.575    5.0237
   34.710    4.8763
   34.845    4.8341
   34.980    5.2554
   35.115    4.7920
   35.250    4.9394
   35.385    5.0448
   35.520    4.8447
   35.655    4.5919
   35.790    4.9816
   35.925    4.9184
   36.060    4.9184
   36.195    4.7499
   36.330    5.1817
   36.465    5.1606
   36.600    4.7709
   36.735    4.6024
   36.870    5.0026
   37.005    4.5814
   37.140    4.7815
   37.275    4.3707
   37.410    4.5603
   37.545    4.7077
   37.680    4.9500
   37.815    4.8657
   37.950    4.7393
   38.085    4.6867
   38.220    4.3602
   38.355    4.9710
   38.490    4.4971
   38.625    5.4555
   38.760    4.7920
   38.895    4.8236
   39.030    4.9078
   39.165    5.1185
   39.300    4.9500
   39.435    4.6972
   39.570    4.9710
   39.705    4.9605
   39.840    4.5392
   39.975    4.8131
   39.990    4.7183