File: data/MOCOF-1/PXRD/PXRD_KE-008_Cu-Ka1_capillary-1mm_5s-deg.xyd
    1.500   37.7357
    1.635   32.7751
    1.770   28.3307
    1.905   25.2238
    2.040   22.7172
    2.175   20.2422
    2.310   18.4729
    2.445   16.8194
    2.580   15.3239
    2.715   14.7235
    2.850   14.2812
    2.985   13.3755
    3.120   11.7746
    3.255   11.7641
    3.390   11.6166
    3.525   11.3533
    3.660   11.0269
    3.795   10.5424
    3.930   10.7004
    4.065    9.9210
    4.200    9.6682
    4.335    9.6577
    4.470    9.4997
    4.605    9.0679
    4.740    9.4365
    4.875    9.3102
    5.010    9.0363
    5.145    9.0258
    5.280    8.5729
    5.415    8.9100
    5.550    8.7730
    5.685    8.5835
    5.820    8.3307
    5.955    9.0469
    6.090    8.6888
    6.225    7.9831
    6.360    8.5729
    6.495    8.5729
    6.630    8.3834
    6.765    8.7836
    6.900    8.9205
    7.035    8.3623
    7.170    8.8784
    7.305    8.2886
    7.440    8.3939
    7.575    8.7941
    7.710    8.5097
    7.845    8.9310
    7.980    8.4887
    8.115    8.6467
    8.250    8.8573
    8.385    8.8152
    8.520    8.6361
    8.655    8.7836
    8.790    8.4676
    8.925    8.4255
    9.060    9.0890
    9.195    8.4781
    9.330    8.8152
    9.465    8.8784
    9.600    8.6045
    9.735    8.4781
    9.870    8.6783
   10.005    8.5835
   10.140    8.8889
   10.275    8.7520
   10.410    8.4992
   10.545    8.7625
   10.680    8.6572
   10.815    8.6045
   10.950    8.6256
   11.085    8.7309
   11.220    8.4781
   11.355    8.3623
   11.490    8.0779
   11.625    8.5940
   11.760    8.1727
   11.895    8.3623
   12.030    7.9305
   12.165    7.9305
   12.300    8.0885
   12.435    7.7199
   12.570    7.7936
   12.705    7.6567
   12.840    7.4566
   12.975    7.8884
   13.110    7.7409
   13.245    7.5092
   13.380    7.8146
   13.515    7.7936
   13.650    7.4882
   13.785    7.5408
   13.920    7.9305
   14.055    6.6351
   14.190    7.5724
   14.325    7.6988
   14.460    7.3091
   14.595    7.9410
   14.730    7.3407
   14.865    7.1827
   15.000    7.5724
   15.135    7.5092
   15.270    7.7409
   15.405    7.6883
   15.540    7.1406
   15.675    7.3302
   15.810    7.5408
   15.945    7.3934
   16.080    7.7514
   16.215    7.5724
   16.350    7.7199
   16.485    7.5619
   16.620    8.0463
   16.755    7.7514
   16.890    7.5092
   17.025    7.3934
   17.160    7.5724
   17.295    7.5513
   17.430    7.6461
   17.565    7.6988
   17.700    7.5619
   17.835    7.6988
   17.970    7.9937
   18.105    8.0042
   18.240    7.7936
   18.375    7.0879
   18.510    7.8146
   18.645    7.3091
   18.780    7.4566
   18.915    7.8041
   19.050    7.6251
   19.185    7.7936
   19.320    7.6777
   19.455    7.8462
   19.590    7.7514
   19.725    8.0253
   19.860    7.4566
   19.995    7.6988
   20.130    7.7936
   20.265    8.2464
   20.400    7.7936
   20.535    7.9621
   20.670    7.6883
   20.805    7.8778
   20.940    7.7409
   21.075    8.5519
   21.210    7.6567
   21.345    8.1833
   21.480    7.9200
   21.615    7.9200
   21.750    7.8673
   21.885    7.8041
   22.020    7.5829
   22.155    8.1833
   22.290    7.8568
   22.425    7.6356
   22.560    8.2675
   22.695    8.1095
   22.830    7.8357
   22.965    7.9305
   23.100    7.8568
   23.235    7.9726
   23.370    7.1301
   23.505    7.5724
   23.640    7.4460
   23.775    7.7830
   23.910    7.8884
   24.045    7.9094
   24.180    8.0042
   24.315    7.4460
   24.450    7.8146
   24.585    8.1727
   24.720    7.3618
   24.855    7.4144
   24.990    7.8462
   25.125    7.8778
   25.260    7.2775
   25.395    7.4144
   25.530    7.5303
   25.665    7.3618
   25.800    7.6672
   25.935    7.4460
   26.070    7.5303
   26.205    7.2354
   26.340    7.0563
   26.475    6.9932
   26.610    7.2775
   26.745    7.3302
   26.880    7.4776
   27.015    6.7088
   27.150    7.2143
   27.285    6.8457
   27.420    6.3928
   27.555    6.9089
   27.690    7.0669
   27.825    6.6351
   27.960    6.6877
   28.095    6.7825
   28.230    7.0458
   28.365    7.3828
   28.500    6.9510
   28.635    6.9405
   28.770    6.7720
   28.905    6.9616
   29.040    6.9194
   29.175    6.6667
   29.310    7.0037
   29.445    6.2665
   29.580    6.3296
   29.715    6.5719
   29.850    6.6772
   29.985    6.7193
   30.120    6.6245
   30.255    6.2665
   30.390    6.1401
   30.525    6.1717
   30.660    6.1822
   30.795    6.3402
   30.930    6.3086
   31.065    6.1717
   31.200    6.0137
   31.335    5.9610
   31.470    6.0453
   31.605    6.2138
   31.740    6.5824
   31.875    6.0137
   32.010    5.9716
   32.145    6.3191
   32.280    6.1190
   32.415    6.1295
   32.550    6.0032
   32.685    5.8768
   32.820    6.1506
   32.955    5.6767
   33.090    5.6872
   33.225    5.7609
   33.360    5.4134
   33.495    5.8557
   33.630    5.7925
   33.765    5.8031
   33.900    5.9610
   34.035    5.8978
   34.170    6.0242
   34.305    5.5082
   34.440    5.8978
   34.575    5.4134
   34.710    5.6872
   34.845    5.7925
   34.980    5.5398
   35.115    5.5714
   35.250    5.6767
   35.385    5.1606
   35.520    5.4134
   35.655    5.4450
   35.790    5.8031
   35.925    5.1711
   36.060    5.3291
   36.195    5.3502
   36.330    5.1185
   36.465    5.3081
   36.600    5.2133
   36.735    5.3186
   36.870    5.2975
   37.005    5.4555
   37.140    5.1817
   37.275    5.2449
   37.410    5.2870
   37.545    5.4660
   37.680    5.4239
   37.815    4.9921
   37.950    5.4555
   38.085    5.4766
   38.220    5.0974
   38.355    5.2343
   38.490    5.5714
   38.625    5.0869
   38.760    4.9289
   38.895    5.3502
   39.030    5.6661
   39.165    4.9921
   39.300    5.6135
   39.435    5.4134
   39.570    4.8763
   39.705    5.1606
   39.840    4.8868
   39.975    5.2449
   39.990    5.2449