File: data/MOCOF-1/PXRD/PXRD_KE-273_Cu-Ka1_film-3mm_3s-deg.xyd
    1.500   17.7813
    1.635   15.8153
    1.770   14.0249
    1.905   12.6909
    2.040   11.9537
    2.175   11.8483
    2.310   11.1287
    2.445   10.0404
    2.580    9.3382
    2.715    9.3558
    2.850    9.7946
    2.985    9.0574
    3.120    9.1978
    3.255    8.3904
    3.390    8.9170
    3.525    8.5659
    3.660    8.7239
    3.795    8.0744
    3.930    8.8994
    4.065    8.8292
    4.200    8.4430
    4.335    8.8292
    4.470    9.0398
    4.605    8.8117
    4.740    9.4260
    4.875    8.7063
    5.010   10.2159
    5.145    9.6718
    5.280   10.7952
    5.415   10.7776
    5.550   11.2340
    5.685   10.8303
    5.820   10.3563
    5.955    8.8994
    6.090    8.6010
    6.225    8.3728
    6.360    8.5659
    6.495    7.5303
    6.630    8.5308
    6.765    6.7930
    6.900    6.9686
    7.035    7.0212
    7.170    7.2143
    7.305    7.3899
    7.440    6.8106
    7.575    7.0037
    7.710    6.4595
    7.845    6.1611
    7.980    6.7579
    8.115    6.0207
    8.250    6.3367
    8.385    6.0558
    8.520    6.1085
    8.655    6.3191
    8.790    6.0558
    8.925    6.3367
    9.060    5.9505
    9.195    5.7048
    9.330    6.1260
    9.465    6.2665
    9.600    6.0734
    9.735    6.0558
    9.870    6.1787
   10.005    5.8978
   10.140    6.0909
   10.275    6.1085
   10.410    6.5298
   10.545    6.2313
   10.680    6.5824
   10.815    6.5473
   10.950    6.5824
   11.085    6.1962
   11.220    6.1787
   11.355    6.4946
   11.490    5.8978
   11.625    6.6526
   11.760    5.7925
   11.895    6.1611
   12.030    6.4771
   12.165    5.3537
   12.300    5.3361
   12.435    5.8627
   12.570    5.6345
   12.705    5.7399
   12.840    5.8276
   12.975    5.8978
   13.110    5.7750
   13.245    5.5292
   13.380    5.4590
   13.515    6.0207
   13.650    5.9505
   13.785    5.1431
   13.920    5.5643
   14.055    5.7048
   14.190    5.8627
   14.325    6.6702
   14.460    6.1787
   14.595    6.0032
   14.730    6.4595
   14.865    5.8276
   15.000    5.5643
   15.135    5.9681
   15.270    5.9681
   15.405    5.3361
   15.540    5.3186
   15.675    6.1085
   15.810    5.5117
   15.945    5.4941
   16.080    5.3888
   16.215    5.6170
   16.350    6.1436
   16.485    5.7925
   16.620    5.2835
   16.755    5.2484
   16.890    5.8101
   17.025    5.7399
   17.160    5.3010
   17.295    5.8452
   17.430    5.9154
   17.565    5.3186
   17.700    5.3537
   17.835    5.4239
   17.970    5.4239
   18.105    5.3888
   18.240    5.4590
   18.375    5.7750
   18.510    5.0202
   18.645    5.7048
   18.780    5.3186
   18.915    5.7399
   19.050    5.4064
   19.185    5.2133
   19.320    4.9851
   19.455    5.1957
   19.590    5.1606
   19.725    5.6170
   19.860    5.1606
   19.995    5.0553
   20.130    5.3712
   20.265    5.5117
   20.400    5.0553
   20.535    5.2308
   20.670    4.7218
   20.805    5.0553
   20.940    5.1255
   21.075    5.3712
   21.210    5.0377
   21.345    4.8973
   21.480    5.2835
   21.615    5.1255
   21.750    5.3186
   21.885    5.3712
   22.020    4.7920
   22.155    4.8271
   22.290    4.5287
   22.425    4.7569
   22.560    4.6165
   22.695    4.5989
   22.830    4.4409
   22.965    5.1080
   23.100    4.9324
   23.235    4.7744
   23.370    5.0026
   23.505    4.8447
   23.640    4.7744
   23.775    4.7042
   23.910    4.4234
   24.045    4.8973
   24.180    4.4760
   24.315    4.6516
   24.450    4.3532
   24.585    4.4585
   24.720    4.1952
   24.855    4.3707
   24.990    4.1074
   25.125    4.4409
   25.260    4.3181
   25.395    4.3883
   25.530    4.2654
   25.665    4.1074
   25.800    4.7393
   25.935    4.5287
   26.070    4.1250
   26.205    4.1601
   26.340    4.3005
   26.475    4.0899
   26.610    4.0723
   26.745    4.4760
   26.880    3.7915
   27.015    3.9143
   27.150    4.2830
   27.285    4.0372
   27.420    3.9494
   27.555    4.1250
   27.690    3.6862
   27.825    4.0723
   27.960    3.9846
   28.095    3.5633
   28.230    3.5633
   28.365    3.5106
   28.500    3.9846
   28.635    3.7564
   28.770    3.5984
   28.905    4.1250
   29.040    4.0548
   29.175    3.5457
   29.310    3.4404
   29.445    3.6686
   29.580    3.7213
   29.715    3.5984
   29.850    3.6335
   29.985    3.4053
   30.120    3.6510
   30.255    3.3702
   30.390    3.2649
   30.525    3.2298
   30.660    3.2473
   30.795    3.3351
   30.930    3.6510
   31.065    3.4229
   31.200    3.1596
   31.335    3.1420
   31.470    3.0367
   31.605    3.1947
   31.740    2.9489
   31.875    3.1947
   32.010    2.8612
   32.145    3.0718
   32.280    2.9138
   32.415    3.0542
   32.550    3.2649
   32.685    2.8436
   32.820    2.9314
   32.955    3.0718
   33.090    3.0191
   33.225    2.7383
   33.360    3.0542
   33.495    2.8260
   33.630    2.8787
   33.765    2.8436
   33.900    2.9314
   34.035    2.9489
   34.170    2.7909
   34.305    2.5276
   34.440    2.7032
   34.575    3.1420
   34.710    2.3697
   34.845    2.7909
   34.980    2.6154
   35.115    2.7207
   35.250    2.7383
   35.385    2.8787
   35.520    2.9138
   35.655    2.5979
   35.790    2.5979
   35.925    2.4574
   36.060    2.8612
   36.195    2.6681
   36.330    2.6330
   36.465    2.5979
   36.600    2.6154
   36.735    2.7032
   36.870    2.9314
   37.005    2.8436
   37.140    2.5628
   37.275    2.8085
   37.410    2.6856
   37.545    2.5979
   37.680    2.3697
   37.815    2.7558
   37.950    2.5276
   38.085    2.4925
   38.220    2.5628
   38.355    2.8436
   38.490    2.5803
   38.625    2.7032
   38.760    2.3521
   38.895    2.3872
   39.030    2.5979
   39.165    2.7558
   39.300    2.9489
   39.435    2.7207
   39.570    2.6681
   39.705    2.6330
   39.840    2.5452
   39.975    2.7558
   39.990    2.5452