File: data/MOCOF-1/PXRD/PXRD_KE-133_Cu-Ka1_capillary-1mm_5s-deg.xyd
    1.500   16.7667
    1.635   16.6614
    1.770   14.5972
    1.905   13.5124
    2.040   12.2064
    2.175   11.1322
    2.310   10.5108
    2.445    9.8684
    2.580    8.9626
    2.715    8.3096
    2.850    8.1306
    2.985    7.5092
    3.120    7.2565
    3.255    6.4666
    3.390    6.3507
    3.525    6.6245
    3.660    5.9716
    3.795    6.0558
    3.930    5.5187
    4.065    5.7399
    4.200    5.9189
    4.335    5.4871
    4.470    5.2659
    4.605    5.4134
    4.740    5.4134
    4.875    5.1395
    5.010    5.1711
    5.145    5.1501
    5.280    4.9078
    5.415    4.9078
    5.550    5.0132
    5.685    4.8341
    5.820    4.6867
    5.955    4.6024
    6.090    4.5708
    6.225    4.4655
    6.360    4.1811
    6.495    4.5287
    6.630    4.5182
    6.765    4.5919
    6.900    4.5603
    7.035    4.6972
    7.170    4.4444
    7.305    4.9605
    7.440    4.4866
    7.575    4.5076
    7.710    4.6130
    7.845    4.5498
    7.980    4.2549
    8.115    4.7604
    8.250    4.6551
    8.385    4.4866
    8.520    4.7288
    8.655    4.5076
    8.790    4.4128
    8.925    4.2549
    9.060    4.4128
    9.195    4.3391
    9.330    4.1601
    9.465    4.1706
    9.600    4.7077
    9.735    3.9494
    9.870    4.1285
   10.005    4.1601
   10.140    4.3075
   10.275    4.3918
   10.410    3.9600
   10.545    3.9284
   10.680    4.1706
   10.815    4.1917
   10.950    4.1601
   11.085    4.0758
   11.220    4.1811
   11.355    4.2233
   11.490    4.1811
   11.625    3.5703
   11.760    4.1180
   11.895    3.8441
   12.030    3.8020
   12.165    3.9600
   12.300    3.9600
   12.435    3.9284
   12.570    3.6651
   12.705    3.9810
   12.840    3.9705
   12.975    3.7493
   13.110    3.9073
   13.245    4.0021
   13.380    3.6019
   13.515    4.1601
   13.650    3.8336
   13.785    4.0442
   13.920    4.0442
   14.055    3.7388
   14.190    3.6967
   14.325    4.1180
   14.460    3.6546
   14.595    3.7283
   14.730    4.0126
   14.865    4.0021
   15.000    3.9705
   15.135    3.9705
   15.270    4.1390
   15.405    3.9705
   15.540    4.0232
   15.675    4.1390
   15.810    4.1811
   15.945    3.6230
   16.080    4.0232
   16.215    4.1390
   16.350    3.9705
   16.485    4.2443
   16.620    3.8863
   16.755    4.1180
   16.890    4.1706
   17.025    4.2759
   17.160    3.9600
   17.295    4.0758
   17.430    4.0548
   17.565    3.9916
   17.700    4.1285
   17.835    4.5182
   17.970    3.9389
   18.105    4.5919
   18.240    4.1390
   18.375    4.0337
   18.510    4.2865
   18.645    3.8652
   18.780    3.8336
   18.915    4.2654
   19.050    4.4234
   19.185    4.1496
   19.320    4.5708
   19.455    3.9810
   19.590    4.1180
   19.725    4.3286
   19.860    4.2233
   19.995    4.2127
   20.130    4.2233
   20.265    4.6445
   20.400    4.1917
   20.535    4.4444
   20.670    4.4971
   20.805    4.3602
   20.940    4.2549
   21.075    4.4023
   21.210    4.2022
   21.345    4.5498
   21.480    4.4128
   21.615    4.2127
   21.750    3.9916
   21.885    4.4023
   22.020    4.2654
   22.155    4.3918
   22.290    4.3602
   22.425    4.2022
   22.560    4.1285
   22.695    4.1180
   22.830    3.9179
   22.965    4.3497
   23.100    4.2759
   23.235    4.2549
   23.370    3.8336
   23.505    4.0232
   23.640    3.9810
   23.775    3.9810
   23.910    4.1180
   24.045    4.3391
   24.180    4.0442
   24.315    3.8336
   24.450    4.1285
   24.585    3.7493
   24.720    3.8863
   24.855    3.6756
   24.990    3.8757
   25.125    3.5914
   25.260    3.8968
   25.395    4.2865
   25.530    3.6967
   25.665    3.8336
   25.800    3.6967
   25.935    3.7072
   26.070    3.4439
   26.205    4.0021
   26.340    3.9494
   26.475    3.6651
   26.610    3.6124
   26.745    3.6546
   26.880    3.5914
   27.015    3.6230
   27.150    3.6546
   27.285    3.5808
   27.420    3.2965
   27.555    3.6230
   27.690    3.5598
   27.825    3.3597
   27.960    3.7283
   28.095    3.4544
   28.230    3.5071
   28.365    3.4544
   28.500    3.2122
   28.635    3.2859
   28.770    3.2017
   28.905    3.4229
   29.040    3.4229
   29.175    3.4966
   29.310    3.2859
   29.445    3.1174
   29.580    2.9805
   29.715    3.2333
   29.850    3.5703
   29.985    3.0648
   30.120    2.9068
   30.255    3.3281
   30.390    3.1490
   30.525    3.0226
   30.660    3.1385
   30.795    2.9489
   30.930    2.9910
   31.065    3.2859
   31.200    3.2122
   31.335    3.1490
   31.470    2.8436
   31.605    3.0542
   31.740    2.8015
   31.875    2.9068
   32.010    2.8541
   32.145    3.3175
   32.280    2.9068
   32.415    2.5382
   32.550    2.5908
   32.685    2.7699
   32.820    2.7067
   32.955    2.6856
   33.090    2.7278
   33.225    2.5592
   33.360    2.6751
   33.495    2.7172
   33.630    2.4223
   33.765    2.7172
   33.900    2.8120
   34.035    2.4434
   34.170    2.3907
   34.305    2.6540
   34.440    2.3802
   34.575    2.4013
   34.710    2.5066
   34.845    2.6014
   34.980    2.2854
   35.115    2.3381
   35.250    2.3591
   35.385    2.3907
   35.520    2.2959
   35.655    2.5803
   35.790    2.2117
   35.925    2.3697
   36.060    2.2854
   36.195    2.2749
   36.330    2.3591
   36.465    1.9589
   36.600    2.1696
   36.735    2.2854
   36.870    2.2538
   37.005    2.0853
   37.140    2.1064
   37.275    2.0748
   37.410    2.1380
   37.545    2.2117
   37.680    2.0326
   37.815    2.2643
   37.950    2.2117
   38.085    2.0748
   38.220    2.1274
   38.355    2.3170
   38.490    2.1590
   38.625    2.2117
   38.760    1.9800
   38.895    2.0432
   39.030    1.8641
   39.165    1.7483
   39.300    2.1274
   39.435    2.0326
   39.570    2.1169
   39.705    2.0011
   39.840    2.0011
   39.975    1.9695
   39.990    2.1274