File: data/MOCOF-1/PXRD/PXRD_KE-274-2_Cu-Ka1_film-3mm_3s-deg.xyd
    1.500   12.6909
    1.635   11.4446
    1.770   10.7249
    1.905   10.6547
    2.040    9.8473
    2.175    9.2329
    2.310    8.9872
    2.445    8.5484
    2.580    8.1797
    2.715    8.1271
    2.850    7.7409
    2.985    7.6005
    3.120    7.9691
    3.255    8.1973
    3.390    8.0393
    3.525    8.1271
    3.660    7.7760
    3.795    8.6888
    3.930    8.1973
    4.065    8.1973
    4.200    8.0744
    4.335    8.2149
    4.470    7.6005
    4.605    8.4606
    4.740    7.7936
    4.875    7.7058
    5.010    8.7941
    5.145    8.8994
    5.280    9.3734
    5.415   10.2159
    5.550   11.5148
    5.685   10.2861
    5.820    9.4260
    5.955    8.5133
    6.090    8.4255
    6.225    8.7063
    6.360    7.6707
    6.495    7.6883
    6.630    7.8638
    6.765    7.0915
    6.900    6.7579
    7.035    6.4244
    7.170    7.0915
    7.305    6.8457
    7.440    5.8276
    7.575    5.6521
    7.710    5.8101
    7.845    5.7048
    7.980    5.9505
    8.115    5.8452
    8.250    5.2133
    8.385    5.7925
    8.520    5.7399
    8.655    6.0032
    8.790    5.5292
    8.925    5.6345
    9.060    5.7574
    9.195    5.0904
    9.330    5.9505
    9.465    5.7399
    9.600    5.3888
    9.735    5.0728
    9.870    5.7574
   10.005    6.0207
   10.140    5.8276
   10.275    6.2138
   10.410    5.7750
   10.545    6.2138
   10.680    5.8627
   10.815    6.0032
   10.950    6.3191
   11.085    5.5643
   11.220    5.7574
   11.355    5.7399
   11.490    5.5292
   11.625    5.5468
   11.760    6.2313
   11.895    5.5117
   12.030    5.2133
   12.165    5.7925
   12.300    5.4941
   12.435    5.0728
   12.570    5.0202
   12.705    5.4415
   12.840    5.7750
   12.975    5.5819
   13.110    5.2484
   13.245    5.1957
   13.380    5.4590
   13.515    5.3010
   13.650    5.0026
   13.785    5.2835
   13.920    5.0377
   14.055    5.7574
   14.190    5.7574
   14.325    5.7574
   14.460    6.1436
   14.595    5.7223
   14.730    5.1080
   14.865    5.4064
   15.000    5.5292
   15.135    5.4239
   15.270    5.4941
   15.405    5.5643
   15.540    5.4415
   15.675    5.3712
   15.810    5.3010
   15.945    5.3537
   16.080    5.2308
   16.215    5.2835
   16.350    5.0728
   16.485    4.8798
   16.620    5.1782
   16.755    5.0377
   16.890    4.7920
   17.025    4.9149
   17.160    4.9675
   17.295    5.0553
   17.430    4.8798
   17.565    4.5287
   17.700    4.9675
   17.835    4.9149
   17.970    5.0553
   18.105    4.9675
   18.240    4.9500
   18.375    5.2308
   18.510    4.9324
   18.645    5.3010
   18.780    5.0377
   18.915    4.8095
   19.050    4.7744
   19.185    4.9324
   19.320    4.7569
   19.455    4.9851
   19.590    4.8271
   19.725    4.8095
   19.860    4.4058
   19.995    4.6165
   20.130    4.8973
   20.265    5.1957
   20.400    4.9324
   20.535    4.8271
   20.670    4.9324
   20.805    4.4760
   20.940    5.0553
   21.075    4.5287
   21.210    4.5463
   21.345    4.5463
   21.480    4.6691
   21.615    4.5638
   21.750    4.8622
   21.885    4.8622
   22.020    4.8798
   22.155    4.6691
   22.290    4.5287
   22.425    4.5989
   22.560    4.8271
   22.695    4.5463
   22.830    4.7042
   22.965    4.3532
   23.100    4.3883
   23.235    4.6867
   23.370    4.2303
   23.505    4.5463
   23.640    4.1776
   23.775    3.9670
   23.910    4.1776
   24.045    4.2830
   24.180    3.8968
   24.315    4.0899
   24.450    4.0197
   24.585    4.3883
   24.720    4.1601
   24.855    4.4058
   24.990    3.8266
   25.125    4.0899
   25.260    3.8090
   25.395    4.1952
   25.530    4.0723
   25.665    3.8090
   25.800    4.3532
   25.935    4.2478
   26.070    3.8968
   26.205    4.1425
   26.340    4.1250
   26.475    4.0197
   26.610    4.0899
   26.745    3.7213
   26.880    4.1776
   27.015    3.7915
   27.150    3.6686
   27.285    3.6510
   27.420    3.7739
   27.555    3.7213
   27.690    3.5457
   27.825    3.5457
   27.960    3.6335
   28.095    3.4931
   28.230    3.5984
   28.365    3.6686
   28.500    3.4931
   28.635    3.3000
   28.770    3.9143
   28.905    3.2298
   29.040    3.4931
   29.175    3.4755
   29.310    3.3000
   29.445    3.4755
   29.580    3.2473
   29.715    3.3877
   29.850    3.0718
   29.985    2.9489
   30.120    3.1069
   30.255    3.0367
   30.390    3.0191
   30.525    3.1596
   30.660    3.0893
   30.795    3.1947
   30.930    3.1947
   31.065    3.2824
   31.200    2.9665
   31.335    2.9314
   31.470    3.0542
   31.605    3.1069
   31.740    3.1771
   31.875    2.6330
   32.010    2.9489
   32.145    2.8612
   32.280    2.8085
   32.415    2.7558
   32.550    2.6505
   32.685    2.7734
   32.820    2.7207
   32.955    2.7558
   33.090    2.7032
   33.225    2.6330
   33.360    2.6154
   33.495    2.7207
   33.630    2.6154
   33.765    2.4925
   33.900    2.5452
   34.035    2.4048
   34.170    2.7909
   34.305    2.2995
   34.440    2.9314
   34.575    2.6856
   34.710    2.4399
   34.845    2.4048
   34.980    3.0542
   35.115    2.4048
   35.250    2.5803
   35.385    2.4048
   35.520    2.2292
   35.655    2.5101
   35.790    2.7207
   35.925    2.5276
   36.060    2.7909
   36.195    2.6505
   36.330    2.2643
   36.465    2.3697
   36.600    2.8085
   36.735    2.4750
   36.870    2.4750
   37.005    2.5803
   37.140    2.7032
   37.275    2.5628
   37.410    2.2468
   37.545    2.4925
   37.680    2.3872
   37.815    2.7383
   37.950    2.3170
   38.085    2.3697
   38.220    2.3697
   38.355    2.6330
   38.490    2.3521
   38.625    2.5628
   38.760    2.4048
   38.895    2.3521
   39.030    2.3346
   39.165    2.6681
   39.300    2.6505
   39.435    2.5276
   39.570    2.4048
   39.705    2.3346
   39.840    2.3346
   39.975    2.4925
   39.990    2.2643