File: data/MOCOF-1/PXRD/PXRD_KE-263_Co-Ka1_capillary-1mm_3s-deg.xyd
    1.500    6.5097
    1.635    4.9938
    1.770    4.1555
    1.905    3.5848
    2.040    2.6217
    2.175    2.3720
    2.310    1.6051
    2.445    1.6230
    2.580    1.4981
    2.715    1.1058
    2.850    1.0523
    2.985    1.0344
    3.120    0.8026
    3.255    0.9809
    3.390    0.6242
    3.525    0.6242
    3.660    0.5886
    3.795    0.7847
    3.930    0.6242
    4.065    0.6064
    4.200    0.7312
    4.335    0.7669
    4.470    0.7491
    4.605    0.5886
    4.740    0.6064
    4.875    0.6242
    5.010    0.5529
    5.145    0.4815
    5.280    0.4280
    5.415    0.5172
    5.550    0.5350
    5.685    0.3924
    5.820    0.4459
    5.955    0.3924
    6.090    0.4994
    6.225    0.4994
    6.360    0.5886
    6.495    0.5172
    6.630    0.5529
    6.765    0.3567
    6.900    0.6242
    7.035    0.4459
    7.170    0.4459
    7.305    0.4280
    7.440    0.5350
    7.575    0.4280
    7.710    0.3389
    7.845    0.5886
    7.980    0.4102
    8.115    0.4102
    8.250    0.4994
    8.385    0.4459
    8.520    0.5350
    8.655    0.5172
    8.790    0.4102
    8.925    0.5350
    9.060    0.4459
    9.195    0.4102
    9.330    0.4815
    9.465    0.4994
    9.600    0.5886
    9.735    0.5172
    9.870    0.4994
   10.005    0.4102
   10.140    0.6777
   10.275    0.6242
   10.410    0.7134
   10.545    0.5886
   10.680    0.6956
   10.815    0.6064
   10.950    0.6777
   11.085    0.6599
   11.220    0.6064
   11.355    0.5886
   11.490    0.5172
   11.625    0.5886
   11.760    0.7134
   11.895    0.4815
   12.030    0.5350
   12.165    0.7491
   12.300    0.7312
   12.435    0.5707
   12.570    0.5529
   12.705    0.6064
   12.840    0.4815
   12.975    0.6421
   13.110    0.7134
   13.245    0.5707
   13.380    0.5172
   13.515    0.6064
   13.650    0.8561
   13.785    0.5172
   13.920    0.6064
   14.055    0.5529
   14.190    0.5172
   14.325    0.3567
   14.460    0.3745
   14.595    0.4815
   14.730    0.4459
   14.865    0.4459
   15.000    0.6064
   15.135    0.4994
   15.270    0.4102
   15.405    0.4280
   15.540    0.3924
   15.675    0.1962
   15.810    0.4280
   15.945    0.4637
   16.080    0.3210
   16.215    0.5350
   16.350    0.5350
   16.485    0.5350
   16.620    0.5350
   16.755    0.4637
   16.890    0.3924
   17.025    0.3567
   17.160    0.3210
   17.295    0.4637
   17.430    0.4459
   17.565    0.4994
   17.700    0.4994
   17.835    0.4102
   17.970    0.3389
   18.105    0.4102
   18.240    0.4102
   18.375    0.3745
   18.510    0.5172
   18.645    1.0344
   18.780    0.4815
   18.915    0.4994
   19.050    0.4994
   19.185    0.4815
   19.320    0.5707
   19.455    0.4102
   19.590    0.4459
   19.725    0.4815
   19.860    0.3567
   19.995    0.4637
   20.130    0.4637
   20.265    0.4102
   20.400    0.3924
   20.535    0.5886
   20.670    0.4280
   20.805    0.4102
   20.940    0.3210
   21.075    0.4459
   21.210    0.3032
   21.345    0.4280
   21.480    0.6421
   21.615    0.6777
   21.750    0.4102
   21.885    0.5529
   22.020    0.5172
   22.155    0.3210
   22.290    0.5172
   22.425    0.4994
   22.560    0.4637
   22.695    0.4815
   22.830    0.4815
   22.965    0.4280
   23.100    0.4815
   23.235    0.5172
   23.370    0.4994
   23.505    0.4815
   23.640    0.4102
   23.775    0.5707
   23.910    0.5529
   24.045    0.5172
   24.180    0.4280
   24.315    0.3745
   24.450    0.4815
   24.585    0.6242
   24.720    0.4102
   24.855    0.8026
   24.990    0.4994
   25.125    0.5172
   25.260    0.6064
   25.395    0.4459
   25.530    0.5707
   25.665    0.5529
   25.800    0.5172
   25.935    0.3567
   26.070    0.4815
   26.205    0.6064
   26.340    0.4280
   26.475    0.4280
   26.610    0.4994
   26.745    0.5707
   26.880    0.3567
   27.015    0.6242
   27.150    0.5529
   27.285    0.4637
   27.420    0.4459
   27.555    0.6242
   27.690    0.6421
   27.825    0.4102
   27.960    0.5350
   28.095    0.5886
   28.230    0.7491
   28.365    1.1771
   28.500    0.4994
   28.635    0.4637
   28.770    0.3567
   28.905    0.6242
   29.040    0.3567
   29.175    0.6242
   29.310    0.5707
   29.445    0.7491
   29.580    0.8026
   29.715    0.5529
   29.850    0.5529
   29.985    0.4815
   30.120    1.3554
   30.255    0.6599
   30.390    0.4994
   30.525    0.4637
   30.660    0.4637
   30.795    0.4637
   30.930    0.4815
   31.065    0.4459
   31.200    0.5886
   31.335    1.7478
   31.470    0.6956
   31.605    0.4637
   31.740    0.5886
   31.875    1.3733
   32.010    0.6064
   32.145    0.4637
   32.280    0.4102
   32.415    0.4459
   32.550    0.2675
   32.685    0.3924
   32.820    0.3924
   32.955    0.4280
   33.090    0.4102
   33.225    0.3745
   33.360    0.4459
   33.495    0.4637
   33.630    0.4815
   33.765    0.3389
   33.900    0.3567
   34.035    0.3210
   34.170    0.3745
   34.305    0.4459
   34.440    0.4637
   34.575    0.4815
   34.710    0.5172
   34.845    0.3032
   34.980    0.3389
   35.115    0.3389
   35.250    0.3567
   35.385    0.4280
   35.520    0.3924
   35.655    0.3210
   35.790    0.4102
   35.925    0.3924
   36.060    0.1962
   36.195    0.3567
   36.330    0.3567
   36.465    0.1783
   36.600    0.2497
   36.735    0.2140
   36.870    0.4102
   37.005    0.3210
   37.140    0.4459
   37.275    0.4102
   37.410    0.3389
   37.545    0.2675
   37.680    0.2854
   37.815    0.3567
   37.950    0.2140
   38.085    0.3389
   38.220    0.3210
   38.355    0.3567
   38.490    0.1962
   38.625    0.2854
   38.760    0.3210
   38.895    0.3032
   39.030    0.3924
   39.165    0.2319
   39.300    0.3567
   39.435    0.2854
   39.570    0.2497
   39.705    0.2497
   39.840    0.2497
   39.975    0.2140
   39.990    0.2319