File: data/MOCOF-1/PXRD/PXRD_KE-081_Cu-Ka1_capillary-1mm_5s-deg.xyd
    1.500   15.8083
    1.635   15.5872
    1.770   15.2185
    1.905   14.6709
    2.040   13.7019
    2.175   13.0174
    2.310   13.1859
    2.445   12.4592
    2.580   13.0490
    2.715   13.8494
    2.850   13.5966
    2.985   15.4081
    3.120   17.4829
    3.255   20.9268
    3.390   26.2665
    3.525   34.6814
    3.660   48.0885
    3.795   89.5945
    3.930   71.9958
    4.065   10.8162
    4.200    8.6572
    4.335    7.3302
    4.470    7.5408
    4.605    7.4882
    4.740    7.5303
    4.875    8.0885
    5.010    9.0153
    5.145    9.8999
    5.280   12.7857
    5.415   20.4845
    5.550   19.2628
    5.685    6.6140
    5.820    6.6772
    5.955    6.4034
    6.090    6.5824
    6.225    6.5719
    6.360    6.3402
    6.495    7.0353
    6.630    7.9305
    6.765   10.7214
    6.900    6.6035
    7.035    6.0242
    7.170    6.6983
    7.305    6.1927
    7.440    6.5508
    7.575    7.6356
    7.710    9.6367
    7.845   10.0579
    7.980    6.1611
    8.115    5.9610
    8.250    6.4876
    8.385    6.3507
    8.520    6.6772
    8.655    6.5403
    8.790    6.5613
    8.925    6.3296
    9.060    6.4560
    9.195    7.1617
    9.330    8.3939
    9.465   11.6904
    9.600   14.7341
    9.735    6.7299
    9.870    5.8768
   10.005    6.8457
   10.140    7.3407
   10.275    8.8257
   10.410    7.3828
   10.545    6.3612
   10.680    6.6245
   10.815    6.6877
   10.950    7.5619
   11.085    8.9731
   11.220    6.3718
   11.355    6.3086
   11.490    6.0137
   11.625    8.0674
   11.760    9.1943
   11.895    6.2770
   12.030    6.0558
   12.165    5.6240
   12.300    6.3718
   12.435    5.9716
   12.570    5.9821
   12.705    5.9084
   12.840    6.0558
   12.975    8.5519
   13.110    5.9716
   13.245    5.9610
   13.380    6.0242
   13.515    6.8246
   13.650    5.8031
   13.785    5.4344
   13.920    5.8031
   14.055    6.9826
   14.190    6.3823
   14.325    5.4976
   14.460    5.7083
   14.595    5.0764
   14.730    5.1711
   14.865    5.5292
   15.000    5.6029
   15.135    6.1822
   15.270    5.6872
   15.405    5.6977
   15.540    5.8031
   15.675    5.4134
   15.810    5.5503
   15.945    5.4555
   16.080    5.8557
   16.215    6.1295
   16.350    5.7925
   16.485    5.6451
   16.620    6.4560
   16.755    5.5714
   16.890    5.8347
   17.025    6.8246
   17.160    6.2665
   17.295    5.5398
   17.430    5.5292
   17.565    5.8241
   17.700    5.4555
   17.835    6.2770
   17.970    6.1927
   18.105    5.6556
   18.240    5.6029
   18.375    5.9505
   18.510    5.7083
   18.645    5.6556
   18.780    5.8978
   18.915    5.8978
   19.050    6.3191
   19.185    5.4660
   19.320    5.5608
   19.455    5.9821
   19.590    6.3086
   19.725    6.1611
   19.860    5.9400
   19.995    5.8452
   20.130    6.0769
   20.265    5.7293
   20.400    7.4566
   20.535    6.0874
   20.670    5.8031
   20.805    5.9400
   20.940    5.7715
   21.075    6.0032
   21.210    5.8452
   21.345    5.7715
   21.480    5.8978
   21.615    5.6977
   21.750    6.0137
   21.885    6.4982
   22.020    5.9821
   22.155    6.1611
   22.290    6.2875
   22.425    6.1611
   22.560    7.1406
   22.695    6.4876
   22.830    6.3191
   22.965    7.0879
   23.100    6.1506
   23.235    6.5403
   23.370    6.3823
   23.505    5.6872
   23.640    5.6135
   23.775    6.4034
   23.910    6.3086
   24.045    5.6451
   24.180    5.7820
   24.315    5.9821
   24.450    6.1190
   24.585    5.5082
   24.720    5.6345
   24.855    6.1822
   24.990    5.5503
   25.125    5.6556
   25.260    6.3296
   25.395    5.7188
   25.530    5.4344
   25.665    5.9716
   25.800    6.7720
   25.935    6.3507
   26.070    5.7399
   26.205    5.7715
   26.340    5.6345
   26.475    6.1085
   26.610    5.8136
   26.745    5.6767
   26.880    5.3607
   27.015    5.7820
   27.150    5.3712
   27.285    5.6556
   27.420    5.3712
   27.555    5.5503
   27.690    5.5819
   27.825    5.7399
   27.960    5.7715
   28.095    5.4871
   28.230    5.8136
   28.365    5.1922
   28.500    5.6135
   28.635    5.7293
   28.770    5.3397
   28.905    5.6977
   29.040    5.2449
   29.175    5.3081
   29.310    5.7820
   29.445    5.1711
   29.580    5.0448
   29.715    5.2343
   29.850    5.4028
   29.985    5.3607
   30.120    5.4028
   30.255    4.6972
   30.390    5.0869
   30.525    4.8131
   30.660    4.9500
   30.795    5.3397
   30.930    5.2027
   31.065    4.9500
   31.200    4.7920
   31.335    4.9710
   31.470    5.0448
   31.605    5.2027
   31.740    5.2975
   31.875    4.8868
   32.010    5.0974
   32.145    5.5503
   32.280    4.5603
   32.415    4.6235
   32.550    5.0553
   32.685    4.8447
   32.820    4.8131
   32.955    4.7709
   33.090    4.6024
   33.225    4.7815
   33.360    4.3813
   33.495    4.5392
   33.630    4.5814
   33.765    4.7077
   33.900    5.3818
   34.035    4.5603
   34.170    4.6340
   34.305    4.6867
   34.440    4.3918
   34.575    4.3918
   34.710    4.5392
   34.845    4.3813
   34.980    4.2970
   35.115    4.2127
   35.250    4.1074
   35.385    4.2654
   35.520    4.1285
   35.655    4.1496
   35.790    4.3075
   35.925    4.4866
   36.060    4.1917
   36.195    4.4550
   36.330    3.8968
   36.465    4.2443
   36.600    4.4866
   36.735    4.8025
   36.870    3.9810
   37.005    4.2443
   37.140    4.2127
   37.275    4.0548
   37.410    4.1601
   37.545    4.2443
   37.680    4.2338
   37.815    4.2654
   37.950    4.1811
   38.085    3.9389
   38.220    4.1601
   38.355    4.0653
   38.490    3.9810
   38.625    4.1390
   38.760    3.8125
   38.895    3.9705
   39.030    3.9600
   39.165    3.9916
   39.300    4.1601
   39.435    4.0548
   39.570    4.0864
   39.705    3.9916
   39.840    3.9916
   39.975    3.9494
   39.990    4.0442