File: data/MOCOF-1/PXRD/PXRD_KE-318_Cu-Ka1_capillary-1mm_60s-deg.xyd
    1.500   14.4207
    1.635   13.0095
    1.770   11.8913
    1.905   10.9400
    2.040   10.4713
    2.175   10.0105
    2.310    9.8508
    2.445    9.9315
    2.580   10.3186
    2.715   10.9154
    2.850   12.1485
    2.985   13.7028
    3.120   16.2313
    3.255   20.0255
    3.390   26.2191
    3.525   37.5979
    3.660   63.0656
    3.795  108.8757
    3.930    8.9319
    4.065    5.5591
    4.200    4.9649
    4.335    4.8850
    4.470    4.7349
    4.605    4.8341
    4.740    5.3019
    4.875    5.7337
    5.010    6.7685
    5.145    8.8792
    5.280   14.3593
    5.415   15.1492
    5.550    4.3628
    5.685    4.0697
    5.820    3.9784
    5.955    3.9258
    6.090    4.0548
    6.225    4.1373
    6.360    4.5594
    6.495    5.6012
    6.630    6.6588
    6.765    3.7941
    6.900    3.6695
    7.035    3.7309
    7.170    3.9398
    7.305    4.1022
    7.440    4.6384
    7.575    6.6377
    7.710    4.4918
    7.845    3.6107
    7.980    3.6168
    8.115    3.6309
    8.250    3.8634
    8.385    4.3251
    8.520    6.2278
    8.655    3.6510
    8.790    3.5387
    8.925    3.7248
    9.060    4.0785
    9.195    5.2317
    9.330    9.7148
    9.465    4.2680
    9.600    3.4580
    9.735    3.6405
    9.870    4.0644
   10.005    5.1211
   10.140    7.6426
   10.275    3.5949
   10.410    3.3860
   10.545    3.6344
   10.680    4.1197
   10.815    6.5385
   10.950    3.5817
   11.085    3.3149
   11.220    3.4588
   11.355    3.8064
   11.490    5.0009
   11.625    3.2579
   11.760    3.2903
   11.895    3.3035
   12.030    3.7353
   12.165    3.9187
   12.300    3.2113
   12.435    3.2552
   12.570    3.6519
   12.705    5.2133
   12.840    3.2938
   12.975    3.1490
   13.110    3.2008
   13.245    3.8898
   13.380    3.2175
   13.515    3.2719
   13.650    3.5685
   13.785    5.3449
   13.920    3.7581
   14.055    3.1631
   14.190    3.0305
   14.325    3.0051
   14.460    3.0341
   14.595    3.0428
   14.730    3.1868
   14.865    3.5993
   15.000    3.0542
   15.135    3.0788
   15.270    2.9577
   15.405    3.0577
   15.540    3.0042
   15.675    3.2096
   15.810    3.8740
   15.945    3.1771
   16.080    3.0112
   16.215    3.2412
   16.350    3.2684
   16.485    3.1324
   16.620    3.2377
   16.755    3.9143
   16.890    3.0858
   17.025    3.1710
   17.160    3.6493
   17.295    3.1394
   17.430    3.0604
   17.565    3.1701
   17.700    3.1525
   17.835    3.1060
   17.970    3.1727
   18.105    3.2394
   18.240    3.0525
   18.375    3.1701
   18.510    3.2438
   18.645    3.0560
   18.780    3.1113
   18.915    3.0455
   19.050    3.0349
   19.185    3.3351
   19.320    3.3123
   19.455    3.0516
   19.590    3.0200
   19.725    3.1078
   19.860    3.2561
   19.995    4.2689
   20.130    3.3518
   20.265    3.1797
   20.400    3.1262
   20.535    3.0902
   20.670    3.2587
   20.805    3.2684
   20.940    3.0639
   21.075    3.0797
   21.210    3.1104
   21.345    3.2500
   21.480    3.6124
   21.615    3.2017
   21.750    3.1464
   21.885    3.2464
   22.020    3.2956
   22.155    3.9328
   22.290    3.4176
   22.425    3.9152
   22.560    4.2400
   22.695    3.2684
   22.830    3.4018
   22.965    3.1815
   23.100    3.1683
   23.235    3.1912
   23.370    3.3483
   23.505    3.7107
   23.640    3.2166
   23.775    3.2052
   23.910    3.0876
   24.045    3.1657
   24.180    3.1560
   24.315    3.1297
   24.450    3.1991
   24.585    3.0867
   24.720    3.2403
   24.855    3.2105
   24.990    3.3105
   25.125    3.3816
   25.260    3.5457
   25.395    4.2013
   25.530    3.2614
   25.665    3.2377
   25.800    3.0183
   25.935    3.4983
   26.070    3.1596
   26.205    3.0209
   26.340    3.0358
   26.475    3.1955
   26.610    3.0139
   26.745    2.9287
   26.880    2.9077
   27.015    3.0525
   27.150    3.0174
   27.285    3.0165
   27.420    3.0042
   27.555    2.9744
   27.690    3.1411
   27.825    3.0595
   27.960    3.1517
   28.095    2.8761
   28.230    2.8655
   28.365    2.8190
   28.500    3.0341
   28.635    2.9410
   28.770    3.2807
   28.905    2.8805
   29.040    2.8550
   29.175    2.8050
   29.310    3.0437
   29.445    2.8497
   29.580    2.9094
   29.715    2.7488
   29.850    2.7690
   29.985    2.7058
   30.120    2.8103
   30.255    2.7620
   30.390    2.7620
   30.525    2.6488
   30.660    2.7111
   30.795    2.6514
   30.930    2.5943
   31.065    2.7041
   31.200    2.6005
   31.335    2.7787
   31.470    2.7137
   31.605    2.6216
   31.740    2.6216
   31.875    2.5943
   32.010    2.5180
   32.145    2.5338
   32.280    2.6918
   32.415    2.5882
   32.550    2.4513
   32.685    2.4381
   32.820    2.4785
   32.955    2.4109
   33.090    2.5338
   33.225    2.4864
   33.360    2.4645
   33.495    2.4285
   33.630    2.3767
   33.765    2.4785
   33.900    2.4197
   34.035    2.3960
   34.170    2.3354
   34.305    2.2486
   34.440    2.2380
   34.575    2.2995
   34.710    2.2617
   34.845    2.2959
   34.980    2.2643
   35.115    2.1976
   35.250    2.2565
   35.385    2.2082
   35.520    2.2240
   35.655    2.2126
   35.790    2.1555
   35.925    2.2389
   36.060    2.2231
   36.195    2.1511
   36.330    2.1099
   36.465    2.1792
   36.600    2.1301
   36.735    2.0686
   36.870    2.1345
   37.005    2.0502
   37.140    2.1248
   37.275    2.2047
   37.410    2.1327
   37.545    2.0599
   37.680    2.1327
   37.815    2.0405
   37.950    2.0221
   38.085    2.0300
   38.220    2.0432
   38.355    2.0256
   38.490    2.1239
   38.625    2.0467
   38.760    2.0432
   38.895    2.0388
   39.030    1.9861
   39.165    1.9730
   39.300    2.0379
   39.435    1.9774
   39.570    2.0950
   39.705    2.0590
   39.840    2.0423
   39.975    1.9607
   39.990    1.9405