File: data/MOCOF-1/PXRD/PXRD_KE-198_Cu-Ka1_film-3mm_5s-deg.xyd
    1.500   22.4013
    1.635   19.8736
    1.770   18.0095
    1.905   15.9663
    2.040   15.4292
    2.175   14.4076
    2.310   13.4387
    2.445   12.8805
    2.580   13.7441
    2.715   14.1338
    2.850   16.2085
    2.985   22.3591
    3.120   31.2796
    3.255   52.0800
    3.390  102.2012
    3.525   63.2122
    3.660   29.4681
    3.795   32.7646
    3.930   44.7077
    4.065   48.7204
    4.200   36.3349
    4.335   20.3160
    4.470   12.8699
    4.605    9.9421
    4.740    9.2891
    4.875    8.5203
    5.010    8.4150
    5.145    8.1095
    5.280    8.3096
    5.415    8.7836
    5.550    8.4150
    5.685    8.1833
    5.820    7.8673
    5.955    7.2880
    6.090    6.8562
    6.225    6.6667
    6.360    6.9194
    6.495    6.7193
    6.630    7.0563
    6.765    9.2680
    6.900   14.5024
    7.035   10.9742
    7.170    7.2880
    7.305    6.8141
    7.440    6.0348
    7.575    6.3612
    7.710    6.6877
    7.845    6.9826
    7.980    7.4776
    8.115    8.2043
    8.250    8.0885
    8.385    8.1622
    8.520    6.8352
    8.655    6.3612
    8.790    5.9084
    8.925    5.4660
    9.060    5.4344
    9.195    5.2133
    9.330    4.8973
    9.465    4.8131
    9.600    4.9605
    9.735    5.1606
    9.870    5.1606
   10.005    5.0658
   10.140    4.8763
   10.275    5.0553
   10.410    5.6977
   10.545    5.4450
   10.680    4.7077
   10.815    4.9921
   10.950    4.7288
   11.085    4.7604
   11.220    5.1080
   11.355    5.2133
   11.490    5.0764
   11.625    4.7920
   11.760    5.2870
   11.895    5.4976
   12.030    5.0132
   12.165    5.5608
   12.300    5.4976
   12.435    5.1080
   12.570    5.3923
   12.705    5.4028
   12.840    5.2554
   12.975    5.2659
   13.110    5.1290
   13.245    5.1606
   13.380    4.8025
   13.515    5.2449
   13.650    5.0764
   13.785    5.2133
   13.920    5.2870
   14.055    5.1395
   14.190    5.2238
   14.325    5.0974
   14.460    5.0658
   14.595    5.1501
   14.730    5.0448
   14.865    4.9921
   15.000    5.1606
   15.135    5.0237
   15.270    4.6024
   15.405    4.8341
   15.540    5.1185
   15.675    4.8552
   15.810    5.0342
   15.945    4.8763
   16.080    4.7499
   16.215    4.6972
   16.350    4.6551
   16.485    4.9184
   16.620    4.8657
   16.755    4.4339
   16.890    4.6235
   17.025    4.8868
   17.160    4.3286
   17.295    4.5919
   17.430    4.9500
   17.565    4.8657
   17.700    4.9289
   17.835    4.9921
   17.970    4.7077
   18.105    4.7709
   18.240    4.9078
   18.375    4.6445
   18.510    5.1290
   18.645    4.7499
   18.780    4.9394
   18.915    4.7077
   19.050    4.6445
   19.185    4.4023
   19.320    4.8447
   19.455    4.6551
   19.590    5.1922
   19.725    5.2554
   19.860    4.9710
   19.995    5.0448
   20.130    5.2449
   20.265    5.2975
   20.400    5.0132
   20.535    4.6235
   20.670    5.2765
   20.805    4.7604
   20.940    4.7393
   21.075    5.2659
   21.210    4.5814
   21.345    4.7604
   21.480    4.5076
   21.615    4.6972
   21.750    4.9500
   21.885    4.8868
   22.020    4.8868
   22.155    4.7604
   22.290    4.8868
   22.425    4.6867
   22.560    4.7393
   22.695    4.4866
   22.830    4.4234
   22.965    4.5814
   23.100    4.7499
   23.235    4.2127
   23.370    4.1917
   23.505    4.4128
   23.640    4.3707
   23.775    4.4339
   23.910    4.3181
   24.045    4.3286
   24.180    4.5498
   24.315    4.4866
   24.450    4.1917
   24.585    4.3075
   24.720    4.0232
   24.855    4.3813
   24.990    4.2233
   25.125    4.1917
   25.260    4.0969
   25.395    4.0337
   25.530    4.0442
   25.665    4.2759
   25.800    4.2549
   25.935    3.6967
   26.070    4.0442
   26.205    3.9810
   26.340    3.9705
   26.475    3.9073
   26.610    3.9494
   26.745    4.1390
   26.880    4.1180
   27.015    3.6335
   27.150    3.8547
   27.285    3.6440
   27.420    3.5914
   27.555    3.6967
   27.690    3.6335
   27.825    3.7072
   27.960    3.5914
   28.095    3.7809
   28.230    4.1390
   28.365    4.1074
   28.500    3.6967
   28.635    4.0548
   28.770    3.8231
   28.905    3.8441
   29.040    3.6230
   29.175    3.5071
   29.310    3.9284
   29.445    3.4755
   29.580    3.4650
   29.715    3.1280
   29.850    3.6440
   29.985    3.4229
   30.120    3.6124
   30.255    3.2859
   30.390    3.7283
   30.525    3.6230
   30.660    3.6019
   30.795    3.4650
   30.930    3.4860
   31.065    3.2333
   31.200    3.4755
   31.335    3.4755
   31.470    3.2859
   31.605    3.4966
   31.740    3.4544
   31.875    3.4544
   32.010    3.5176
   32.145    3.3281
   32.280    3.5282
   32.415    3.1385
   32.550    3.4229
   32.685    3.2649
   32.820    3.5703
   32.955    3.1701
   33.090    2.9489
   33.225    3.2543
   33.360    3.2227
   33.495    3.4018
   33.630    3.3070
   33.765    3.3175
   33.900    3.4229
   34.035    3.3702
   34.170    3.3070
   34.305    3.0964
   34.440    3.2649
   34.575    3.3913
   34.710    3.2333
   34.845    3.2859
   34.980    3.1174
   35.115    3.3175
   35.250    3.0648
   35.385    3.1596
   35.520    3.1806
   35.655    3.3702
   35.790    3.1069
   35.925    3.2649
   36.060    3.0016
   36.195    3.2965
   36.330    3.1806
   36.465    3.0542
   36.600    3.4018
   36.735    3.0332
   36.870    3.0753
   37.005    3.1069
   37.140    3.1912
   37.275    3.2543
   37.410    3.1701
   37.545    3.2227
   37.680    3.4018
   37.815    3.0437
   37.950    3.2649
   38.085    3.1806
   38.220    3.0964
   38.355    3.1385
   38.490    3.2227
   38.625    3.2649
   38.760    3.0648
   38.895    3.1280
   39.030    3.1385
   39.165    3.1174
   39.300    2.9700
   39.435    3.2965
   39.570    3.1596
   39.705    3.2227
   39.840    3.2649
   39.975    2.8225
   39.990    3.1596