File: data/MOCOF-1/PXRD/PXRD_KE-120_Cu-Ka1_capillary-1mm_5s-deg.xyd
    1.500   16.7667
    1.635   14.9342
    1.770   13.1016
    1.905   12.0484
    2.040   10.3844
    2.175   10.2264
    2.310   10.1106
    2.445    9.5103
    2.580    9.2470
    2.715    8.7836
    2.850    9.3207
    2.985    9.1311
    3.120    9.1311
    3.255   10.1001
    3.390   11.3533
    3.525   11.9747
    3.660   14.3023
    3.795   19.7683
    3.930   17.7567
    4.065    9.0785
    4.200    8.2570
    4.335    8.1622
    4.470    8.1411
    4.605    7.8252
    4.740    7.9410
    4.875    7.5092
    5.010    7.9410
    5.145    8.2359
    5.280    9.1311
    5.415   10.5951
    5.550   10.2159
    5.685    7.7514
    5.820    7.5092
    5.955    7.5829
    6.090    7.3934
    6.225    7.4671
    6.360    7.3512
    6.495    7.7409
    6.630    8.0779
    6.765    8.8784
    6.900    7.6356
    7.035    7.2459
    7.170    7.6883
    7.305    7.6883
    7.440    7.6251
    7.575    8.1622
    7.710    8.2359
    7.845    8.2570
    7.980    7.7514
    8.115    7.4460
    8.250    8.2886
    8.385    7.8989
    8.520    8.0885
    8.655    8.1201
    8.790    7.6672
    8.925    7.6988
    9.060    8.4150
    9.195    8.0042
    9.330    8.2886
    9.465    9.4892
    9.600    9.1732
    9.735    8.1201
    9.870    7.8357
   10.005    8.1622
   10.140    8.7941
   10.275    7.8989
   10.410    8.2570
   10.545    7.9200
   10.680    8.3834
   10.815    8.1201
   10.950    7.8146
   11.085    8.6467
   11.220    7.5197
   11.355    7.7304
   11.490    7.9726
   11.625    8.1411
   11.760    8.2675
   11.895    7.4250
   12.030    7.8778
   12.165    7.4250
   12.300    7.3196
   12.435    7.2354
   12.570    6.8141
   12.705    7.2459
   12.840    7.4671
   12.975    7.5935
   13.110    7.1301
   13.245    7.3302
   13.380    7.2249
   13.515    7.1722
   13.650    7.0353
   13.785    6.6456
   13.920    6.7930
   14.055    7.3196
   14.190    6.6351
   14.325    6.8457
   14.460    6.5403
   14.595    7.0037
   14.730    6.9721
   14.865    7.0037
   15.000    6.7088
   15.135    7.2565
   15.270    7.0458
   15.405    6.8457
   15.540    6.5403
   15.675    7.0458
   15.810    7.0353
   15.945    7.1090
   16.080    6.9300
   16.215    7.3091
   16.350    7.1090
   16.485    7.1195
   16.620    6.9932
   16.755    7.1301
   16.890    7.4460
   17.025    7.2565
   17.160    7.2459
   17.295    6.6877
   17.430    7.4039
   17.565    6.8562
   17.700    7.3723
   17.835    7.0458
   17.970    7.0774
   18.105    7.2565
   18.240    7.0037
   18.375    7.1090
   18.510    7.4039
   18.645    6.7088
   18.780    7.2880
   18.915    7.2249
   19.050    7.5829
   19.185    7.0774
   19.320    7.5408
   19.455    7.6672
   19.590    7.2880
   19.725    7.4355
   19.860    7.3302
   19.995    7.4144
   20.130    7.1511
   20.265    7.3196
   20.400    7.8041
   20.535    7.9094
   20.670    7.1301
   20.805    7.1511
   20.940    7.6145
   21.075    7.2880
   21.210    7.0353
   21.345    7.3091
   21.480    6.9089
   21.615    7.6567
   21.750    7.2459
   21.885    7.7199
   22.020    7.2459
   22.155    7.7409
   22.290    7.4250
   22.425    7.6356
   22.560    7.9726
   22.695    7.8252
   22.830    7.3302
   22.965    7.6777
   23.100    7.5092
   23.235    7.5935
   23.370    7.2249
   23.505    7.5092
   23.640    7.2775
   23.775    7.4566
   23.910    7.4987
   24.045    7.2775
   24.180    7.3407
   24.315    7.2038
   24.450    7.2354
   24.585    7.5513
   24.720    7.2143
   24.855    7.1406
   24.990    7.3407
   25.125    7.5513
   25.260    6.6983
   25.395    7.1617
   25.530    7.1090
   25.665    7.3512
   25.800    7.1933
   25.935    6.9826
   26.070    6.7720
   26.205    6.8246
   26.340    6.8562
   26.475    7.0037
   26.610    7.1827
   26.745    6.6561
   26.880    7.3091
   27.015    6.8668
   27.150    7.1195
   27.285    6.8352
   27.420    6.6561
   27.555    6.6140
   27.690    6.7720
   27.825    6.9194
   27.960    7.2775
   28.095    6.7509
   28.230    6.9510
   28.365    6.5508
   28.500    6.7930
   28.635    6.8036
   28.770    6.8352
   28.905    7.3828
   29.040    6.4771
   29.175    6.4560
   29.310    6.5508
   29.445    6.6772
   29.580    6.3191
   29.715    6.1822
   29.850    6.1927
   29.985    6.4771
   30.120    6.4560
   30.255    6.2033
   30.390    6.3402
   30.525    6.2559
   30.660    6.5298
   30.795    5.5714
   30.930    6.6456
   31.065    6.0242
   31.200    6.1822
   31.335    5.8031
   31.470    6.1927
   31.605    5.9716
   31.740    6.4560
   31.875    6.5929
   32.010    6.9510
   32.145    7.6040
   32.280    6.2349
   32.415    6.3823
   32.550    6.2033
   32.685    6.2138
   32.820    5.8557
   32.955    5.7293
   33.090    5.5924
   33.225    6.0453
   33.360    6.0032
   33.495    6.1085
   33.630    6.0558
   33.765    6.0348
   33.900    6.0664
   34.035    5.7504
   34.170    6.1190
   34.305    6.0032
   34.440    5.8978
   34.575    5.7399
   34.710    5.5819
   34.845    5.7925
   34.980    5.6977
   35.115    6.1611
   35.250    5.7293
   35.385    5.7504
   35.520    5.3502
   35.655    5.1711
   35.790    5.4766
   35.925    5.6135
   36.060    5.5398
   36.195    5.4344
   36.330    5.8031
   36.465    5.5082
   36.600    5.2659
   36.735    5.5503
   36.870    5.2554
   37.005    5.3712
   37.140    5.3502
   37.275    5.3291
   37.410    5.8241
   37.545    5.5398
   37.680    5.3607
   37.815    5.5398
   37.950    5.4555
   38.085    5.6872
   38.220    5.6977
   38.355    5.2870
   38.490    5.5187
   38.625    5.9189
   38.760    5.1922
   38.895    5.4766
   39.030    5.6451
   39.165    5.6872
   39.300    5.3818
   39.435    5.7083
   39.570    5.4344
   39.705    5.4660
   39.840    5.8031
   39.975    5.4871
   39.990    5.4555