File: data/MOCOF-1/PXRD/PXRD_KE-286_Co-Ka1_film-3mm_5s-deg.xyd
    1.500    6.8807
    1.635    5.8427
    1.770    5.6822
    1.905    4.2269
    2.040    4.0342
    2.175    3.5634
    2.310    3.4029
    2.445    3.0712
    2.580    2.9963
    2.715    2.8250
    2.850    2.7715
    2.985    2.5789
    3.120    2.7073
    3.255    2.9428
    3.390    3.4778
    3.525    4.1199
    3.660    6.1637
    3.795    9.3098
    3.930   17.1750
    4.065   23.4243
    4.200   11.5249
    4.335    8.2611
    4.470    9.1279
    4.605   10.1766
    4.740    8.4644
    4.875    6.3349
    5.010    4.6335
    5.145    2.9963
    5.280    2.8571
    5.415    2.1188
    5.550    2.1509
    5.685    1.9476
    5.820    2.0653
    5.955    2.0011
    6.090    1.9369
    6.225    2.1830
    6.360    2.0011
    6.495    1.8727
    6.630    1.8834
    6.765    1.8085
    6.900    1.5516
    7.035    1.6265
    7.170    1.4018
    7.305    1.4553
    7.440    1.4767
    7.575    1.4981
    7.710    1.4232
    7.845    1.5623
    7.980    2.1830
    8.115    2.9749
    8.250    2.2258
    8.385    1.4981
    8.520    1.4339
    8.655    1.2092
    8.790    1.4232
    8.925    1.3376
    9.060    1.4339
    9.195    1.4767
    9.330    1.2841
    9.465    1.5409
    9.600    1.4232
    9.735    1.2306
    9.870    1.3697
   10.005    1.3055
   10.140    1.1129
   10.275    0.9952
   10.410    0.9310
   10.545    0.8347
   10.680    0.8454
   10.815    0.9417
   10.950    0.8347
   11.085    0.8989
   11.220    0.9203
   11.355    0.8454
   11.490    0.7919
   11.625    0.7598
   11.760    0.8347
   11.895    0.7598
   12.030    0.9096
   12.165    0.9524
   12.300    1.1664
   12.435    0.9310
   12.570    0.8454
   12.705    0.9952
   12.840    1.0594
   12.975    0.9096
   13.110    0.9417
   13.245    1.1450
   13.380    0.8347
   13.515    1.0273
   13.650    0.8454
   13.785    0.9096
   13.920    0.7384
   14.055    0.9096
   14.190    0.9738
   14.325    0.9738
   14.460    0.9524
   14.595    0.9845
   14.730    0.9203
   14.865    0.8775
   15.000    0.9096
   15.135    0.7598
   15.270    0.8133
   15.405    0.9203
   15.540    0.8026
   15.675    0.7063
   15.810    0.8775
   15.945    0.8347
   16.080    0.8989
   16.215    0.8775
   16.350    0.9738
   16.485    0.8989
   16.620    1.0594
   16.755    1.1557
   16.890    0.8989
   17.025    0.8668
   17.160    0.7812
   17.295    0.8561
   17.430    0.8775
   17.565    0.8347
   17.700    0.9310
   17.835    0.7277
   17.970    0.8989
   18.105    0.8347
   18.240    0.8133
   18.375    0.6849
   18.510    0.8668
   18.645    0.7063
   18.780    0.8133
   18.915    0.7812
   19.050    0.7812
   19.185    0.6635
   19.320    0.7277
   19.455    0.7491
   19.590    0.7384
   19.725    0.6849
   19.860    0.7063
   19.995    0.8347
   20.130    0.7919
   20.265    0.8026
   20.400    0.8454
   20.535    0.8454
   20.670    0.7170
   20.805    0.8989
   20.940    0.8347
   21.075    0.7063
   21.210    0.7491
   21.345    0.7598
   21.480    0.7812
   21.615    0.8454
   21.750    0.6207
   21.885    0.7170
   22.020    0.6635
   22.155    0.8882
   22.290    0.6956
   22.425    0.8561
   22.560    0.8561
   22.695    0.8026
   22.830    0.8561
   22.965    0.7277
   23.100    0.8240
   23.235    0.7063
   23.370    0.7277
   23.505    0.6421
   23.640    0.7277
   23.775    0.9096
   23.910    0.8454
   24.045    0.8775
   24.180    0.8133
   24.315    0.8240
   24.450    0.7277
   24.585    0.7170
   24.720    0.9310
   24.855    0.7705
   24.990    0.7598
   25.125    0.6849
   25.260    0.8882
   25.395    0.7598
   25.530    0.6956
   25.665    0.7277
   25.800    0.8240
   25.935    0.6314
   26.070    0.8133
   26.205    0.7812
   26.340    0.6849
   26.475    0.6635
   26.610    0.7491
   26.745    0.7063
   26.880    0.7598
   27.015    0.7598
   27.150    0.7063
   27.285    0.7491
   27.420    0.7063
   27.555    0.5671
   27.690    0.5350
   27.825    0.6742
   27.960    0.5457
   28.095    0.6956
   28.230    0.5778
   28.365    0.6207
   28.500    0.5671
   28.635    0.6528
   28.770    0.5564
   28.905    0.5457
   29.040    0.6207
   29.175    0.5778
   29.310    0.5564
   29.445    0.6421
   29.580    0.6635
   29.715    0.6849
   29.850    0.5778
   29.985    0.5886
   30.120    0.5671
   30.255    0.5564
   30.390    0.5350
   30.525    0.5243
   30.660    0.4601
   30.795    0.5029
   30.930    0.4815
   31.065    0.4815
   31.200    0.4601
   31.335    0.4601
   31.470    0.4922
   31.605    0.3852
   31.740    0.4922
   31.875    0.5029
   32.010    0.4922
   32.145    0.4601
   32.280    0.5136
   32.415    0.4922
   32.550    0.3852
   32.685    0.6207
   32.820    0.4601
   32.955    0.4601
   33.090    0.4708
   33.225    0.4708
   33.360    0.4708
   33.495    0.5136
   33.630    0.5457
   33.765    0.4815
   33.900    0.4601
   34.035    0.4387
   34.170    0.3959
   34.305    0.4173
   34.440    0.3959
   34.575    0.3531
   34.710    0.3959
   34.845    0.3852
   34.980    0.4173
   35.115    0.3210
   35.250    0.3638
   35.385    0.2996
   35.520    0.3959
   35.655    0.3103
   35.790    0.4280
   35.925    0.3638
   36.060    0.3424
   36.195    0.3103
   36.330    0.3210
   36.465    0.3531
   36.600    0.4066
   36.735    0.2675
   36.870    0.3103
   37.005    0.3531
   37.140    0.3317
   37.275    0.2354
   37.410    0.3210
   37.545    0.3424
   37.680    0.3531
   37.815    0.3424
   37.950    0.2782
   38.085    0.3317
   38.220    0.3103
   38.355    0.2889
   38.490    0.3424
   38.625    0.3103
   38.760    0.2568
   38.895    0.3210
   39.030    0.2889
   39.165    0.3103
   39.300    0.2461
   39.435    0.2568
   39.570    0.2782
   39.705    0.2675
   39.840    0.1926
   39.975    0.2247
   39.990    0.2675