File: data/MOCOF-1/PXRD/PXRD_KE-259_Co-Ka1_film-3mm_3s-deg.xyd
    1.500    3.1924
    1.635    3.0141
    1.770    3.2103
    1.905    2.6039
    2.040    2.5147
    2.175    2.2115
    2.310    2.3007
    2.445    2.1045
    2.580    1.8013
    2.715    1.9975
    2.850    2.0688
    2.985    1.7121
    3.120    1.7121
    3.255    1.8905
    3.390    1.4803
    3.525    1.5338
    3.660    1.5695
    3.795    1.7300
    3.930    1.4625
    4.065    1.4981
    4.200    1.5516
    4.335    1.9618
    4.470    2.9963
    4.605    1.7121
    4.740    1.4803
    4.875    1.3554
    5.010    1.4268
    5.145    1.5695
    5.280    1.3911
    5.415    1.4090
    5.550    1.3911
    5.685    1.4981
    5.820    1.6943
    5.955    1.8727
    6.090    1.8370
    6.225    2.0510
    6.360    2.1223
    6.495    2.1402
    6.630    1.7657
    6.765    2.0688
    6.900    1.6943
    7.035    1.3376
    7.170    1.4625
    7.305    1.5516
    7.440    1.4268
    7.575    1.1414
    7.710    1.2306
    7.845    1.3733
    7.980    1.3733
    8.115    1.2306
    8.250    1.1949
    8.385    1.2841
    8.520    0.9809
    8.655    1.0166
    8.790    1.0166
    8.925    1.1058
    9.060    1.1236
    9.195    1.0344
    9.330    1.0879
    9.465    0.7491
    9.600    0.8382
    9.735    0.8917
    9.870    0.9274
   10.005    0.9096
   10.140    0.8561
   10.275    0.6599
   10.410    0.9631
   10.545    0.7669
   10.680    0.8026
   10.815    0.9096
   10.950    0.9274
   11.085    1.1058
   11.220    0.9452
   11.355    0.8026
   11.490    0.7491
   11.625    0.6777
   11.760    0.8026
   11.895    0.9452
   12.030    0.7669
   12.165    0.8026
   12.300    0.8026
   12.435    0.9274
   12.570    0.7847
   12.705    0.8204
   12.840    0.8382
   12.975    0.9988
   13.110    0.9988
   13.245    0.8917
   13.380    0.8382
   13.515    0.8026
   13.650    0.7669
   13.785    0.8204
   13.920    0.8382
   14.055    0.6956
   14.190    0.7669
   14.325    0.8026
   14.460    0.8382
   14.595    0.9631
   14.730    0.7669
   14.865    0.6421
   15.000    0.6777
   15.135    0.9452
   15.270    0.8561
   15.405    0.9096
   15.540    0.8382
   15.675    0.7134
   15.810    0.9096
   15.945    0.7847
   16.080    0.8561
   16.215    0.8382
   16.350    0.7134
   16.485    0.8917
   16.620    0.7491
   16.755    0.9096
   16.890    0.9274
   17.025    0.8382
   17.160    0.8204
   17.295    0.7847
   17.430    0.8204
   17.565    0.6777
   17.700    0.9988
   17.835    0.8204
   17.970    0.8204
   18.105    0.6956
   18.240    0.6064
   18.375    0.7134
   18.510    0.6599
   18.645    0.8204
   18.780    1.0166
   18.915    0.8204
   19.050    0.7669
   19.185    0.6599
   19.320    0.7491
   19.455    0.6599
   19.590    0.7312
   19.725    0.8561
   19.860    0.6242
   19.995    0.7491
   20.130    0.6599
   20.265    0.8026
   20.400    0.6956
   20.535    0.8739
   20.670    0.6421
   20.805    0.7134
   20.940    0.6599
   21.075    0.6956
   21.210    0.6777
   21.345    0.6956
   21.480    0.7491
   21.615    0.6242
   21.750    0.6242
   21.885    0.6599
   22.020    0.8917
   22.155    0.6777
   22.290    0.6777
   22.425    0.6064
   22.560    0.7134
   22.695    0.4459
   22.830    0.7669
   22.965    0.8026
   23.100    0.6242
   23.235    0.6777
   23.370    0.7669
   23.505    0.6777
   23.640    0.7847
   23.775    0.4815
   23.910    0.6777
   24.045    0.5886
   24.180    0.7847
   24.315    0.6421
   24.450    0.6064
   24.585    0.7134
   24.720    0.4637
   24.855    0.6064
   24.990    0.6064
   25.125    0.5886
   25.260    0.5886
   25.395    0.6599
   25.530    0.5886
   25.665    0.4280
   25.800    0.7134
   25.935    0.6599
   26.070    0.6777
   26.205    0.5529
   26.340    0.7491
   26.475    0.5886
   26.610    0.5886
   26.745    0.6777
   26.880    0.6777
   27.015    0.4102
   27.150    0.6599
   27.285    0.5529
   27.420    0.6242
   27.555    0.5886
   27.690    0.4815
   27.825    0.5707
   27.960    0.5172
   28.095    0.6064
   28.230    0.5707
   28.365    0.6064
   28.500    0.5350
   28.635    0.5707
   28.770    0.3567
   28.905    0.5529
   29.040    0.4815
   29.175    0.4637
   29.310    0.4815
   29.445    0.4994
   29.580    0.5350
   29.715    0.4815
   29.850    0.4994
   29.985    0.6064
   30.120    0.4994
   30.255    0.5886
   30.390    0.4637
   30.525    0.5886
   30.660    0.4459
   30.795    0.5529
   30.930    0.5172
   31.065    0.4280
   31.200    0.4102
   31.335    0.3567
   31.470    0.4459
   31.605    0.3924
   31.740    0.3924
   31.875    0.3924
   32.010    0.3389
   32.145    0.3389
   32.280    0.3567
   32.415    0.5350
   32.550    0.3389
   32.685    0.4459
   32.820    0.3567
   32.955    0.4815
   33.090    0.3924
   33.225    0.4815
   33.360    0.5529
   33.495    0.4102
   33.630    0.4994
   33.765    0.2675
   33.900    0.4994
   34.035    0.4994
   34.170    0.3389
   34.305    0.3924
   34.440    0.3389
   34.575    0.2675
   34.710    0.3032
   34.845    0.3210
   34.980    0.4280
   35.115    0.2319
   35.250    0.3389
   35.385    0.3032
   35.520    0.3210
   35.655    0.2675
   35.790    0.3567
   35.925    0.3389
   36.060    0.3210
   36.195    0.3210
   36.330    0.2854
   36.465    0.3032
   36.600    0.3210
   36.735    0.2319
   36.870    0.2497
   37.005    0.4637
   37.140    0.4102
   37.275    0.2675
   37.410    0.2675
   37.545    0.2854
   37.680    0.1605
   37.815    0.2675
   37.950    0.2140
   38.085    0.2854
   38.220    0.2319
   38.355    0.2140
   38.490    0.2675
   38.625    0.3210
   38.760    0.3567
   38.895    0.2675
   39.030    0.3389
   39.165    0.2854
   39.300    0.2497
   39.435    0.3032
   39.570    0.2675
   39.705    0.2497
   39.840    0.1605
   39.975    0.1962
   39.990    0.1783