File: data/MOCOF-1/PXRD/PXRD_KE-235_Co-Ka1_capillary-1mm_5s-deg.xyd
    1.500    7.2873
    1.635    6.0995
    1.770    4.7940
    1.905    4.0556
    2.040    3.6169
    2.175    2.8892
    2.310    2.3649
    2.445    2.1295
    2.580    2.0439
    2.715    1.7335
    2.850    1.4446
    2.985    1.4125
    3.120    1.3804
    3.255    1.1878
    3.390    1.2413
    3.525    1.1985
    3.660    1.0808
    3.795    1.1129
    3.930    1.0701
    4.065    0.9845
    4.200    0.9417
    4.335    1.0808
    4.470    0.9203
    4.605    1.0273
    4.740    1.0487
    4.875    0.7812
    5.010    0.8775
    5.145    0.9310
    5.280    0.8668
    5.415    0.9310
    5.550    0.9096
    5.685    0.8347
    5.820    0.7919
    5.955    0.7277
    6.090    0.8882
    6.225    0.9845
    6.360    0.8668
    6.495    0.8133
    6.630    0.9524
    6.765    0.6849
    6.900    0.7812
    7.035    0.9524
    7.170    0.8561
    7.305    0.8775
    7.440    0.7812
    7.575    0.9738
    7.710    0.7598
    7.845    0.8561
    7.980    0.8026
    8.115    0.8561
    8.250    0.8240
    8.385    0.8347
    8.520    0.8347
    8.655    0.8454
    8.790    0.8989
    8.925    0.7491
    9.060    0.7491
    9.195    0.8668
    9.330    0.9096
    9.465    0.7384
    9.600    0.7812
    9.735    0.9310
    9.870    0.7170
   10.005    0.7812
   10.140    0.8668
   10.275    0.9203
   10.410    0.8775
   10.545    0.9096
   10.680    0.9524
   10.815    0.8133
   10.950    0.9524
   11.085    0.8133
   11.220    0.7919
   11.355    1.0273
   11.490    0.9738
   11.625    1.0487
   11.760    0.9096
   11.895    0.8347
   12.030    0.8668
   12.165    0.8561
   12.300    0.8240
   12.435    0.8133
   12.570    0.6742
   12.705    0.8989
   12.840    0.8347
   12.975    0.8668
   13.110    0.8561
   13.245    0.7812
   13.380    0.6742
   13.515    0.7384
   13.650    0.7384
   13.785    0.7491
   13.920    0.5671
   14.055    0.7812
   14.190    0.6528
   14.325    0.7598
   14.460    0.7491
   14.595    0.5457
   14.730    0.8133
   14.865    0.5886
   15.000    0.6742
   15.135    0.7170
   15.270    0.6849
   15.405    0.6635
   15.540    0.6635
   15.675    0.8240
   15.810    0.7491
   15.945    0.7598
   16.080    0.6314
   16.215    0.8668
   16.350    0.6956
   16.485    0.7491
   16.620    0.6956
   16.755    0.5993
   16.890    0.6207
   17.025    0.6528
   17.160    0.5886
   17.295    0.5993
   17.430    0.4708
   17.565    0.7705
   17.700    0.6635
   17.835    0.6314
   17.970    0.7705
   18.105    0.7277
   18.240    0.6528
   18.375    0.5993
   18.510    0.7170
   18.645    0.7705
   18.780    0.6849
   18.915    0.6100
   19.050    0.6849
   19.185    0.7384
   19.320    0.6742
   19.455    0.7170
   19.590    0.5886
   19.725    0.6956
   19.860    0.5778
   19.995    0.6421
   20.130    0.5886
   20.265    0.6314
   20.400    0.6528
   20.535    0.7384
   20.670    0.5457
   20.805    0.6742
   20.940    0.6528
   21.075    0.6635
   21.210    0.7063
   21.345    0.7170
   21.480    0.6742
   21.615    0.7919
   21.750    0.7705
   21.885    0.7491
   22.020    0.8347
   22.155    0.6849
   22.290    0.6956
   22.425    0.5671
   22.560    0.6635
   22.695    0.7919
   22.830    0.8347
   22.965    0.7491
   23.100    0.7384
   23.235    0.7277
   23.370    0.6207
   23.505    0.6314
   23.640    0.7919
   23.775    0.7277
   23.910    0.6849
   24.045    0.6635
   24.180    0.7063
   24.315    0.6635
   24.450    0.8347
   24.585    0.7277
   24.720    0.5886
   24.855    0.8026
   24.990    0.7919
   25.125    0.7598
   25.260    0.8668
   25.395    0.7063
   25.530    0.8133
   25.665    0.8026
   25.800    0.8240
   25.935    0.8026
   26.070    0.6956
   26.205    0.7384
   26.340    0.6956
   26.475    0.8026
   26.610    0.6742
   26.745    0.8026
   26.880    0.7705
   27.015    0.7812
   27.150    0.8347
   27.285    0.7598
   27.420    0.6207
   27.555    0.7812
   27.690    0.6956
   27.825    0.8026
   27.960    0.8240
   28.095    0.7491
   28.230    0.7277
   28.365    0.7705
   28.500    0.7277
   28.635    0.7705
   28.770    0.7384
   28.905    0.6742
   29.040    0.6956
   29.175    0.6207
   29.310    0.7705
   29.445    0.5778
   29.580    0.6100
   29.715    0.6956
   29.850    0.7705
   29.985    0.8240
   30.120    0.6849
   30.255    0.6207
   30.390    0.6956
   30.525    0.6742
   30.660    0.5671
   30.795    0.6635
   30.930    0.5564
   31.065    0.7277
   31.200    0.5993
   31.335    0.5886
   31.470    0.7919
   31.605    0.6635
   31.740    0.6528
   31.875    0.5457
   32.010    0.7063
   32.145    0.5993
   32.280    0.5350
   32.415    0.5671
   32.550    0.5993
   32.685    0.7063
   32.820    0.6100
   32.955    0.7063
   33.090    0.6207
   33.225    0.5778
   33.360    0.5350
   33.495    0.4601
   33.630    0.4922
   33.765    0.4601
   33.900    0.6421
   34.035    0.6635
   34.170    0.5886
   34.305    0.5243
   34.440    0.4815
   34.575    0.4494
   34.710    0.5350
   34.845    0.5564
   34.980    0.4708
   35.115    0.5993
   35.250    0.4922
   35.385    0.5029
   35.520    0.4066
   35.655    0.4601
   35.790    0.5564
   35.925    0.4601
   36.060    0.4173
   36.195    0.3959
   36.330    0.5029
   36.465    0.3959
   36.600    0.3959
   36.735    0.4280
   36.870    0.4815
   37.005    0.4601
   37.140    0.5886
   37.275    0.4280
   37.410    0.4815
   37.545    0.4387
   37.680    0.4387
   37.815    0.4066
   37.950    0.5457
   38.085    0.2996
   38.220    0.4173
   38.355    0.4280
   38.490    0.4815
   38.625    0.3531
   38.760    0.3531
   38.895    0.5457
   39.030    0.3103
   39.165    0.4066
   39.300    0.4387
   39.435    0.5350
   39.570    0.5243
   39.705    0.4066
   39.840    0.3745
   39.975    0.2996
   39.990    0.4173