File: data/MOCOF-1/PXRD/PXRD_KE-135_Cu-Ka1_capillary-1mm_5s-deg.xyd
    1.500   18.5571
    1.635   17.2617
    1.770   16.3244
    1.905   15.7451
    2.040   15.7030
    2.175   15.5450
    2.310   16.6087
    2.445   17.3038
    2.580   18.6519
    2.715   20.9584
    2.850   25.2238
    2.985   30.7109
    3.120   39.7788
    3.255   56.3139
    3.390   90.8268
    3.525   80.6214
    3.660   36.9668
    3.795   36.7878
    3.930   43.1806
    4.065   44.9921
    4.200   34.9763
    4.335   19.8736
    4.470   11.8694
    4.605    8.9205
    4.740    8.0779
    4.875    7.3407
    5.010    6.8352
    5.145    6.4139
    5.280    6.4666
    5.415    6.5613
    5.550    6.3402
    5.685    5.6767
    5.820    5.8978
    5.955    5.7293
    6.090    5.9821
    6.225    5.8662
    6.360    6.3086
    6.495    6.6245
    6.630    7.5935
    6.765    8.9626
    6.900   12.8805
    7.035   12.7436
    7.170    7.3196
    7.305    6.4455
    7.440    6.4982
    7.575    6.5719
    7.710    7.0353
    7.845    7.5935
    7.980    8.3518
    8.115    8.6045
    8.250    8.9731
    8.385    8.4887
    8.520    7.8041
    8.655    7.1722
    8.790    6.3296
    8.925    6.0453
    9.060    5.8241
    9.195    5.4871
    9.330    5.6451
    9.465    5.3923
    9.600    5.3186
    9.735    5.4660
    9.870    5.3081
   10.005    5.1501
   10.140    5.5924
   10.275    5.7715
   10.410    6.2981
   10.545    5.5292
   10.680    5.6135
   10.815    5.5187
   10.950    5.5819
   11.085    5.5398
   11.220    5.2238
   11.355    5.2343
   11.490    5.4344
   11.625    5.2027
   11.760    5.8347
   11.895    5.5398
   12.030    5.6451
   12.165    5.9294
   12.300    5.5924
   12.435    5.8452
   12.570    6.2243
   12.705    5.5187
   12.840    5.9610
   12.975    5.3397
   13.110    5.3502
   13.245    5.4134
   13.380    5.4134
   13.515    5.6345
   13.650    5.5503
   13.785    5.2765
   13.920    5.2343
   14.055    5.3397
   14.190    5.4450
   14.325    5.2659
   14.460    5.5608
   14.595    5.1922
   14.730    5.1501
   14.865    5.0237
   15.000    5.4028
   15.135    4.8552
   15.270    5.3081
   15.405    5.4239
   15.540    5.4028
   15.675    5.7504
   15.810    5.5082
   15.945    5.5187
   16.080    5.4028
   16.215    5.3607
   16.350    5.2133
   16.485    5.6345
   16.620    5.3186
   16.755    5.2659
   16.890    5.2765
   17.025    5.4555
   17.160    5.0237
   17.295    5.0237
   17.430    5.3291
   17.565    5.1501
   17.700    5.4871
   17.835    5.3081
   17.970    5.3818
   18.105    5.4344
   18.240    5.4028
   18.375    5.0974
   18.510    5.1922
   18.645    5.3081
   18.780    5.2238
   18.915    5.9084
   19.050    5.9400
   19.185    5.5292
   19.320    5.6661
   19.455    5.6767
   19.590    5.1922
   19.725    5.6240
   19.860    6.2349
   19.995    5.7609
   20.130    5.8768
   20.265    5.8347
   20.400    5.7504
   20.535    5.9821
   20.670    5.8557
   20.805    5.5503
   20.940    6.1401
   21.075    5.9400
   21.210    5.5714
   21.345    5.6240
   21.480    5.9189
   21.615    5.9400
   21.750    5.7293
   21.885    5.9084
   22.020    5.9400
   22.155    5.8241
   22.290    6.0664
   22.425    6.1611
   22.560    6.1927
   22.695    6.0664
   22.830    5.5398
   22.965    5.4450
   23.100    6.0032
   23.235    5.9716
   23.370    5.7715
   23.505    5.9400
   23.640    5.5819
   23.775    5.4134
   23.910    5.7083
   24.045    5.4871
   24.180    5.6345
   24.315    5.4871
   24.450    5.5819
   24.585    5.7820
   24.720    5.9821
   24.855    5.5082
   24.990    5.4766
   25.125    5.2870
   25.260    5.1711
   25.395    5.2554
   25.530    5.5714
   25.665    5.5608
   25.800    5.3397
   25.935    5.1711
   26.070    5.1395
   26.205    5.2554
   26.340    5.3818
   26.475    5.3186
   26.610    5.4555
   26.745    4.8657
   26.880    4.9710
   27.015    5.0237
   27.150    4.9710
   27.285    4.7920
   27.420    4.9710
   27.555    5.0764
   27.690    5.2765
   27.825    5.0658
   27.960    5.5503
   28.095    5.2870
   28.230    4.8025
   28.365    5.2238
   28.500    5.0132
   28.635    4.9500
   28.770    4.9921
   28.905    5.1185
   29.040    4.9921
   29.175    4.6761
   29.310    4.9500
   29.445    4.9394
   29.580    4.9289
   29.715    4.6235
   29.850    4.5182
   29.985    4.4760
   30.120    4.6972
   30.255    4.5603
   30.390    4.8973
   30.525    4.2654
   30.660    4.6656
   30.795    4.4760
   30.930    4.2654
   31.065    4.3497
   31.200    4.6340
   31.335    4.2022
   31.470    4.8131
   31.605    4.3286
   31.740    4.8025
   31.875    4.5392
   32.010    4.8131
   32.145    5.4660
   32.280    4.0548
   32.415    4.5287
   32.550    4.4550
   32.685    4.8552
   32.820    4.1811
   32.955    4.1496
   33.090    3.9600
   33.225    4.2549
   33.360    4.1811
   33.495    4.2654
   33.630    3.8125
   33.765    4.5076
   33.900    4.7604
   34.035    4.1180
   34.170    3.9600
   34.305    4.2443
   34.440    3.9494
   34.575    4.1706
   34.710    3.9179
   34.845    3.7599
   34.980    4.4444
   35.115    3.8652
   35.250    3.9179
   35.385    4.1917
   35.520    3.8125
   35.655    3.8020
   35.790    3.7809
   35.925    3.8652
   36.060    4.0442
   36.195    4.0758
   36.330    3.5282
   36.465    3.7493
   36.600    3.6335
   36.735    3.6967
   36.870    3.8020
   37.005    3.8547
   37.140    3.6546
   37.275    3.6967
   37.410    4.0548
   37.545    3.5176
   37.680    3.5914
   37.815    3.8757
   37.950    3.6230
   38.085    3.6651
   38.220    3.3597
   38.355    3.5808
   38.490    3.8757
   38.625    4.0548
   38.760    3.3175
   38.895    3.6230
   39.030    3.6019
   39.165    3.6862
   39.300    3.7072
   39.435    3.9179
   39.570    3.6230
   39.705    3.5808
   39.840    3.7072
   39.975    3.5703
   39.990    3.4755