File: data/MOCOF-1/PXRD/PXRD_KE-050_Cu-Ka1_capillary-1mm_5s-deg.xyd
    1.500   20.4739
    1.635   19.9579
    1.770   20.1474
    1.905   18.2306
    2.040   18.0411
    2.175   17.5461
    2.310   17.8831
    2.445   17.8936
    2.580   19.0943
    2.715   19.7051
    2.850   21.1374
    2.985   23.0437
    3.120   27.0142
    3.255   33.4281
    3.390   42.1801
    3.525   57.4618
    3.660   84.9816
    3.795  146.9300
    3.930  297.2512
    4.065   12.6804
    4.200   10.5319
    4.335   10.6793
    4.470   10.2475
    4.605   10.5213
    4.740   10.9847
    4.875   11.4060
    5.010   13.6598
    5.145   17.7988
    5.280   23.6124
    5.415   41.2217
    5.550   86.4876
    5.685    9.1101
    5.820    8.9415
    5.955    8.1622
    6.090    7.7409
    6.225    8.4255
    6.360    8.8257
    6.495    9.3523
    6.630   11.1954
    6.765   20.3476
    6.900    7.9094
    7.035    7.3828
    7.170    7.7093
    7.305    8.1095
    7.440    8.6677
    7.575   10.5740
    7.710   15.4713
    7.845   28.1306
    7.980    6.7404
    8.115    6.9089
    8.250    6.6772
    8.385    7.2565
    8.520    7.3407
    8.655    8.0779
    8.790    9.0047
    8.925    7.6145
    9.060    7.2775
    9.195    8.4150
    9.330   11.5640
    9.465   20.0843
    9.600   49.7736
    9.735    6.7193
    9.870    6.5719
   10.005    6.7930
   10.140    8.0358
   10.275   10.9742
   10.410   11.3323
   10.545    6.1717
   10.680    7.2880
   10.815    7.5724
   10.950   10.3949
   11.085   19.5998
   11.220    6.4560
   11.355    6.4244
   11.490    7.2670
   11.625    9.0258
   11.760   17.0616
   11.895    6.2243
   12.030    6.4350
   12.165    5.9294
   12.300    6.6983
   12.435    6.7720
   12.570    6.1611
   12.705    6.7088
   12.840    7.5197
   12.975   11.4271
   13.110    6.5298
   13.245    5.8768
   13.380    6.6035
   13.515    7.9200
   13.650    6.9616
   13.785    6.0874
   13.920    6.4455
   14.055    8.7730
   14.190    9.5735
   14.325    6.1611
   14.460    5.7188
   14.595    6.0874
   14.730    5.8136
   14.865    6.1717
   15.000    6.0348
   15.135    7.1511
   15.270    6.2559
   15.405    5.9821
   15.540    6.0453
   15.675    5.8768
   15.810    6.2033
   15.945    6.0979
   16.080    6.7930
   16.215    7.5829
   16.350    6.1085
   16.485    6.6245
   16.620    7.1827
   16.755    6.3928
   16.890    6.6983
   17.025    8.6888
   17.160   10.1316
   17.295    6.2454
   17.430    5.9821
   17.565    7.9200
   17.700    6.1611
   17.835    5.8557
   17.970    6.7299
   18.105    5.6029
   18.240    5.8662
   18.375    7.0985
   18.510    6.2770
   18.645    6.7930
   18.780    6.4350
   18.915    6.1611
   19.050    6.5298
   19.185    6.1611
   19.320    5.9084
   19.455    6.3086
   19.590    7.4776
   19.725    6.9616
   19.860    6.6456
   19.995    6.4350
   20.130    6.2770
   20.265    6.6351
   20.400    9.8368
   20.535    6.1822
   20.670    6.1401
   20.805    6.2349
   20.940    6.4982
   21.075    6.0874
   21.210    6.3718
   21.345    6.2138
   21.480    5.9505
   21.615    6.4244
   21.750    6.6983
   21.885    7.6777
   22.020    6.2349
   22.155    6.8246
   22.290    7.2670
   22.425    6.5087
   22.560   10.1422
   22.695    8.4676
   22.830    7.3934
   22.965   11.1848
   23.100    6.5719
   23.235    7.4144
   23.370    6.9616
   23.505    6.0558
   23.640    6.8352
   23.775    6.5719
   23.910    7.6777
   24.045    6.7088
   24.180    6.2138
   24.315    6.2349
   24.450    6.1717
   24.585    6.4455
   24.720    6.2770
   24.855    6.2033
   24.990    6.7193
   25.125    6.2243
   25.260    7.1827
   25.395    6.4034
   25.530    6.6561
   25.665    6.4771
   25.800    8.4044
   25.935    7.9621
   26.070    5.9084
   26.205    6.4034
   26.340    6.3402
   26.475    6.6772
   26.610    6.1822
   26.745    5.8978
   26.880    6.1822
   27.015    7.0458
   27.150    6.4876
   27.285    5.6451
   27.420    5.6767
   27.555    5.8347
   27.690    6.7720
   27.825    5.9610
   27.960    6.3296
   28.095    6.5403
   28.230    7.0669
   28.365    5.8031
   28.500    7.2459
   28.635    5.8031
   28.770    5.7715
   28.905    5.6240
   29.040    5.5608
   29.175    5.9505
   29.310    6.4982
   29.445    6.0664
   29.580    5.6556
   29.715    5.6556
   29.850    6.3086
   29.985    5.4344
   30.120    5.7925
   30.255    5.7504
   30.390    5.7609
   30.525    5.8031
   30.660    5.9084
   30.795    5.1711
   30.930    5.8031
   31.065    5.4555
   31.200    5.4871
   31.335    5.3081
   31.470    5.8978
   31.605    5.4134
   31.740    5.8978
   31.875    5.6661
   32.010    5.2870
   32.145    5.6345
   32.280    5.6872
   32.415    5.4028
   32.550    5.0764
   32.685    5.1501
   32.820    5.2449
   32.955    5.6135
   33.090    5.0764
   33.225    5.0869
   33.360    4.9500
   33.495    4.9078
   33.630    5.1606
   33.765    5.1711
   33.900    5.7293
   34.035    5.1395
   34.170    5.1711
   34.305    5.1606
   34.440    5.0869
   34.575    4.9184
   34.710    4.9394
   34.845    5.2975
   34.980    4.9816
   35.115    4.8236
   35.250    5.1922
   35.385    5.0974
   35.520    4.8131
   35.655    4.8447
   35.790    5.0026
   35.925    5.0869
   36.060    5.0974
   36.195    4.9605
   36.330    4.7604
   36.465    4.6445
   36.600    5.0342
   36.735    4.8341
   36.870    4.5076
   37.005    4.7920
   37.140    4.9921
   37.275    4.5708
   37.410    4.4971
   37.545    4.8868
   37.680    4.6761
   37.815    4.4866
   37.950    4.9816
   38.085    4.5392
   38.220    4.8131
   38.355    4.5498
   38.490    4.7183
   38.625    4.4234
   38.760    4.4444
   38.895    4.3286
   39.030    4.6340
   39.165    4.7604
   39.300    4.4655
   39.435    4.8131
   39.570    4.3813
   39.705    4.5392
   39.840    4.7604
   39.975    4.4655
   39.990    4.4866