File: data/MOCOF-1/PXRD/PXRD_KE-085_Cu-Ka1_capillary-1mm_5s-deg.xyd
    1.500   43.1280
    1.635   39.9579
    1.770   36.1137
    1.905   33.5650
    2.040   30.6582
    2.175   29.3944
    2.310   28.0463
    2.445   26.3823
    2.580   25.4660
    2.715   27.0985
    2.850   27.7093
    2.985   30.0685
    3.120   32.7014
    3.255   40.0527
    3.390   51.1638
    3.525   64.1496
    3.660   88.7099
    3.795  154.8078
    3.930  129.6893
    4.065   17.9674
    4.200   14.0284
    4.335   12.5118
    4.470   12.1748
    4.605   12.5118
    4.740   13.3755
    4.875   12.9647
    5.010   15.0290
    5.145   17.8726
    5.280   24.8552
    5.415   39.9368
    5.550   38.6940
    5.685   11.2796
    5.820    9.7314
    5.955    9.5945
    6.090    9.8999
    6.225   10.3423
    6.360   10.4792
    6.495   11.3639
    6.630   14.4181
    6.765   20.6846
    6.900   10.1843
    7.035    9.6998
    7.170    9.6893
    7.305    9.7209
    7.440   10.5740
    7.575   12.2380
    7.710   16.5456
    7.845   17.6409
    7.980    9.3207
    8.115    9.4892
    8.250    9.3839
    8.385    9.3734
    8.520    9.7946
    8.655   10.3002
    8.790    9.8578
    8.925    9.5945
    9.060    9.4681
    9.195   10.7530
    9.330   12.7120
    9.465   20.9479
    9.600   27.4355
    9.735    9.9737
    9.870    9.9526
   10.005    9.5945
   10.140   10.9426
   10.275   14.7973
   10.410   10.9531
   10.545    9.5629
   10.680    8.7941
   10.815    9.9947
   10.950   11.9115
   11.085   15.5345
   11.220    9.0995
   11.355    9.0890
   11.490   10.5108
   11.625   12.1011
   11.760   16.1769
   11.895    8.8889
   12.030    8.5519
   12.165    8.5940
   12.300    9.6788
   12.435    9.1206
   12.570    8.5624
   12.705    8.8573
   12.840    9.4365
   12.975   14.3023
   13.110    8.2464
   13.245    8.5413
   13.380    8.7204
   13.515   10.8268
   13.650    8.7204
   13.785    8.1306
   13.920    8.7941
   14.055   11.7009
   14.190    9.5735
   14.325    7.9410
   14.460    7.9410
   14.595    8.0569
   14.730    7.7936
   14.865    8.4044
   15.000    8.3623
   15.135    8.9310
   15.270    7.9516
   15.405    7.8673
   15.540    8.1517
   15.675    7.6672
   15.810    8.0253
   15.945    7.6672
   16.080    8.8152
   16.215    8.7414
   16.350    8.2886
   16.485    8.7204
   16.620    9.9842
   16.755    8.0042
   16.890    8.8678
   17.025   10.7214
   17.160    9.5945
   17.295    8.0990
   17.430    8.2043
   17.565    8.8152
   17.700    8.1411
   17.835    7.6883
   17.970    8.8573
   18.105    8.3096
   18.240    8.2359
   18.375    9.3628
   18.510    8.6572
   18.645    8.5624
   18.780    8.8257
   18.915    8.1938
   19.050    8.6045
   19.185    8.3307
   19.320    8.1622
   19.455    8.0885
   19.590    9.3312
   19.725    8.2149
   19.860    8.0147
   19.995    8.7941
   20.130    8.1095
   20.265    8.9310
   20.400   11.4376
   20.535    8.7836
   20.670    8.1938
   20.805    8.3096
   20.940    8.2780
   21.075    8.4676
   21.210    8.4887
   21.345    8.2359
   21.480    8.2991
   21.615    8.9100
   21.750    8.4150
   21.885    9.9842
   22.020    8.1622
   22.155    8.8678
   22.290    9.2996
   22.425    9.0047
   22.560   11.3007
   22.695    9.8368
   22.830    9.9526
   22.965   11.8273
   23.100    8.9521
   23.235    9.6998
   23.370    9.4787
   23.505    8.7836
   23.640    9.0995
   23.775    8.9310
   23.910    9.1522
   24.045    8.4360
   24.180    8.3834
   24.315    8.8573
   24.450    8.2780
   24.585    8.5729
   24.720    7.9726
   24.855    8.1938
   24.990    8.3939
   25.125    8.0885
   25.260    8.2780
   25.395    8.3307
   25.530    8.8152
   25.665    8.3939
   25.800    9.4787
   25.935    9.7420
   26.070    8.1411
   26.205    8.1727
   26.340    8.3939
   26.475    9.1943
   26.610    8.1201
   26.745    7.7936
   26.880    7.9937
   27.015    8.6151
   27.150    8.5940
   27.285    7.4776
   27.420    7.5619
   27.555    8.4571
   27.690    8.2464
   27.825    7.9200
   27.960    7.8568
   28.095    8.1411
   28.230    9.1101
   28.365    8.3412
   28.500    8.3412
   28.635    7.8357
   28.770    7.5197
   28.905    7.9305
   29.040    7.6988
   29.175    7.6777
   29.310    8.2359
   29.445    7.9305
   29.580    7.2459
   29.715    7.5619
   29.850    7.7830
   29.985    7.2670
   30.120    7.6040
   30.255    7.5619
   30.390    7.2986
   30.525    7.2880
   30.660    7.6145
   30.795    7.5197
   30.930    7.5619
   31.065    6.9721
   31.200    7.0248
   31.335    7.3723
   31.470    7.4566
   31.605    7.6883
   31.740    7.8989
   31.875    8.0463
   32.010    7.7830
   32.145    7.1090
   32.280    7.4566
   32.415    7.2038
   32.550    7.1827
   32.685    6.8562
   32.820    7.2038
   32.955    7.3407
   33.090    7.0879
   33.225    6.9616
   33.360    6.7720
   33.495    6.6456
   33.630    7.2880
   33.765    7.3723
   33.900    8.0990
   34.035    7.1827
   34.170    7.2038
   34.305    7.0458
   34.440    6.7615
   34.575    7.2670
   34.710    7.2249
   34.845    6.9616
   34.980    7.2565
   35.115    6.6983
   35.250    7.0142
   35.385    6.8878
   35.520    6.7299
   35.655    6.7193
   35.790    6.8562
   35.925    7.0985
   36.060    6.7088
   36.195    6.9826
   36.330    7.0774
   36.465    6.7720
   36.600    6.8352
   36.735    6.9194
   36.870    6.5613
   37.005    7.1090
   37.140    7.1301
   37.275    6.9194
   37.410    6.9300
   37.545    6.5719
   37.680    6.9194
   37.815    6.8878
   37.950    6.7404
   38.085    6.8141
   38.220    6.8668
   38.355    6.8141
   38.490    6.6245
   38.625    6.5298
   38.760    6.6035
   38.895    6.8457
   39.030    6.9721
   39.165    6.6456
   39.300    6.7720
   39.435    6.8352
   39.570    6.1085
   39.705    6.6245
   39.840    6.9510
   39.975    6.6667
   39.990    6.8246