File: data/MOCOF-1/PXRD/PXRD_KE-147_Cu-Ka1_film-3mm_5s-deg.xyd
    1.500   13.4702
    1.635   12.0906
    1.770   10.4265
    1.905    9.7525
    2.040    8.8573
    2.175    7.8357
    2.310    7.8673
    2.445    7.5724
    2.580    7.5092
    2.715    7.1090
    2.850    6.6983
    2.985    6.3507
    3.120    6.6561
    3.255    6.6667
    3.390    6.2454
    3.525    6.6772
    3.660    5.9084
    3.795    6.2033
    3.930    6.1295
    4.065    6.2665
    4.200    6.1717
    4.335    5.8978
    4.470    6.3402
    4.605    6.0558
    4.740    6.4771
    4.875    5.9610
    5.010    6.3823
    5.145    6.8562
    5.280    7.0879
    5.415    7.0353
    5.550    7.7093
    5.685    7.6040
    5.820    6.9721
    5.955    6.6035
    6.090    6.1190
    6.225    6.0979
    6.360    5.9084
    6.495    6.0453
    6.630    6.1611
    6.765    5.4028
    6.900    5.3502
    7.035    5.4344
    7.170    5.3186
    7.305    5.0974
    7.440    5.0342
    7.575    5.1395
    7.710    4.8868
    7.845    4.9816
    7.980    4.8552
    8.115    4.6656
    8.250    4.5603
    8.385    4.2970
    8.520    4.6130
    8.655    4.5603
    8.790    4.1285
    8.925    4.6340
    9.060    4.4339
    9.195    4.2127
    9.330    4.4023
    9.465    4.1917
    9.600    4.2338
    9.735    4.4339
    9.870    4.1390
   10.005    4.4023
   10.140    4.2443
   10.275    4.5076
   10.410    4.5076
   10.545    4.5182
   10.680    4.5498
   10.815    4.6867
   10.950    4.6867
   11.085    4.5603
   11.220    4.5919
   11.355    4.1601
   11.490    4.5182
   11.625    4.3286
   11.760    4.3497
   11.895    4.0864
   12.030    4.3813
   12.165    4.3918
   12.300    4.5498
   12.435    4.3602
   12.570    4.0021
   12.705    4.2022
   12.840    4.2970
   12.975    4.0442
   13.110    4.6130
   13.245    4.4760
   13.380    4.3181
   13.515    4.2443
   13.650    4.3497
   13.785    4.2127
   13.920    4.3602
   14.055    4.4550
   14.190    4.5182
   14.325    4.7393
   14.460    4.4550
   14.595    4.4971
   14.730    4.7604
   14.865    4.6024
   15.000    4.1390
   15.135    4.3707
   15.270    4.2654
   15.405    4.3707
   15.540    4.4234
   15.675    4.5287
   15.810    4.7288
   15.945    5.1290
   16.080    5.0448
   16.215    5.3502
   16.350    4.9921
   16.485    4.4655
   16.620    4.5814
   16.755    4.0758
   16.890    4.4339
   17.025    4.4655
   17.160    4.3602
   17.295    4.2022
   17.430    4.1074
   17.565    4.5182
   17.700    4.2865
   17.835    4.2970
   17.970    4.4866
   18.105    4.4234
   18.240    4.2865
   18.375    3.9810
   18.510    4.3391
   18.645    3.9284
   18.780    4.0864
   18.915    4.3497
   19.050    4.8236
   19.185    4.2127
   19.320    4.3497
   19.455    4.0864
   19.590    4.0232
   19.725    4.0548
   19.860    4.0864
   19.995    4.0442
   20.130    3.8336
   20.265    3.9916
   20.400    4.0442
   20.535    3.8125
   20.670    4.0864
   20.805    3.8336
   20.940    4.0232
   21.075    3.9916
   21.210    3.9284
   21.345    3.9810
   21.480    4.0337
   21.615    3.9600
   21.750    3.7283
   21.885    3.8441
   22.020    3.9494
   22.155    3.8020
   22.290    3.8020
   22.425    3.9389
   22.560    3.8336
   22.695    3.7177
   22.830    3.9179
   22.965    3.8231
   23.100    4.4760
   23.235    3.5914
   23.370    3.8125
   23.505    3.5492
   23.640    3.8336
   23.775    3.4544
   23.910    3.7599
   24.045    3.7915
   24.180    3.8020
   24.315    3.5808
   24.450    3.3386
   24.585    3.5387
   24.720    3.5914
   24.855    3.6651
   24.990    3.5808
   25.125    3.5703
   25.260    3.4123
   25.395    3.4018
   25.530    3.6862
   25.665    3.5492
   25.800    3.4966
   25.935    3.6230
   26.070    3.6335
   26.205    3.5071
   26.340    3.3070
   26.475    3.6440
   26.610    3.5492
   26.745    3.4544
   26.880    3.2543
   27.015    3.1701
   27.150    3.2649
   27.285    3.4018
   27.420    3.3807
   27.555    3.1490
   27.690    3.3597
   27.825    3.1806
   27.960    4.0864
   28.095    3.2333
   28.230    3.4018
   28.365    3.2438
   28.500    3.1490
   28.635    3.3491
   28.770    3.2438
   28.905    3.5282
   29.040    3.0858
   29.175    3.2649
   29.310    2.9279
   29.445    2.9805
   29.580    3.5282
   29.715    3.0964
   29.850    3.6335
   29.985    3.2649
   30.120    2.8225
   30.255    3.0437
   30.390    3.1806
   30.525    3.1174
   30.660    3.2859
   30.795    3.1069
   30.930    3.2649
   31.065    3.1490
   31.200    3.3281
   31.335    2.9489
   31.470    3.1701
   31.605    3.4439
   31.740    3.4229
   31.875    3.5808
   32.010    3.8863
   32.145    4.1285
   32.280    3.2333
   32.415    3.1596
   32.550    3.1069
   32.685    2.8015
   32.820    2.7699
   32.955    2.8752
   33.090    2.9173
   33.225    2.8963
   33.360    3.0332
   33.495    2.7593
   33.630    2.9068
   33.765    3.1596
   33.900    2.5487
   34.035    2.8647
   34.170    3.0016
   34.305    3.0121
   34.440    2.9279
   34.575    2.8015
   34.710    2.8436
   34.845    2.7804
   34.980    2.9173
   35.115    2.7699
   35.250    2.8120
   35.385    2.6751
   35.520    2.8647
   35.655    2.7278
   35.790    2.6014
   35.925    2.7909
   36.060    2.6435
   36.195    2.7593
   36.330    2.8331
   36.465    2.8541
   36.600    2.7172
   36.735    2.7067
   36.870    2.9489
   37.005    2.8752
   37.140    2.8331
   37.275    2.8015
   37.410    2.7278
   37.545    2.8120
   37.680    2.7909
   37.815    2.8015
   37.950    2.7383
   38.085    2.7593
   38.220    2.8541
   38.355    2.7699
   38.490    2.9384
   38.625    3.2543
   38.760    3.2649
   38.895    3.3913
   39.030    3.4439
   39.165    3.4334
   39.300    3.4439
   39.435    3.0964
   39.570    3.0226
   39.705    2.9805
   39.840    2.7488
   39.975    2.8857
   39.990    2.6856