File: data/MOCOF-1/PXRD/PXRD_KE-050-3_Cu-Ka1_capillary-1mm_5s-deg.xyd
    1.500  136.9668
    1.635  116.4718
    1.770   91.8694
    1.905   70.8057
    2.040   55.3028
    2.175   43.8863
    2.310   35.3870
    2.445   29.3628
    2.580   25.4450
    2.715   22.1906
    2.850   19.5787
    2.985   17.9568
    3.120   15.4292
    3.255   14.7341
    3.390   13.9231
    3.525   13.0174
    3.660   12.8594
    3.795   11.7009
    3.930   11.5429
    4.065   12.1643
    4.200   11.3323
    4.335   12.0274
    4.470   11.0690
    4.605   10.8162
    4.740   10.2791
    4.875    9.6472
    5.010    9.5419
    5.145    9.8999
    5.280    9.0574
    5.415    9.3418
    5.550    9.2259
    5.685    9.3628
    5.820    9.0153
    5.955    9.4155
    6.090    9.0363
    6.225    9.3523
    6.360    9.2575
    6.495    9.2048
    6.630    9.5629
    6.765    8.9100
    6.900    9.0047
    7.035    9.1101
    7.170    9.2048
    7.305    9.2786
    7.440    8.9731
    7.575    9.2154
    7.710    9.4576
    7.845    9.6788
    7.980    9.6261
    8.115    9.4576
    8.250    9.5103
    8.385    9.6893
    8.520    9.7420
    8.655    9.6156
    8.790   10.0579
    8.925   10.0263
    9.060   10.0369
    9.195   10.0369
    9.330   10.0790
    9.465    9.6472
    9.600   10.6266
    9.735    9.7630
    9.870    9.7630
   10.005   10.2580
   10.140   10.0369
   10.275   10.0685
   10.410    9.8999
   10.545    9.7209
   10.680    9.4892
   10.815    9.8157
   10.950    9.8052
   11.085    9.3312
   11.220    9.2154
   11.355    9.0785
   11.490    9.4576
   11.625    8.9626
   11.760    8.9626
   11.895    8.9521
   12.030    8.6572
   12.165    9.1522
   12.300    9.1522
   12.435    9.0363
   12.570    8.3623
   12.705    8.0463
   12.840    8.5519
   12.975    8.0779
   13.110    8.9205
   13.245    7.8778
   13.380    8.5835
   13.515    7.9937
   13.650    8.1411
   13.785    8.4992
   13.920    8.6572
   14.055    8.6677
   14.190    8.7836
   14.325    8.1306
   14.460    8.4255
   14.595    8.6045
   14.730    8.1938
   14.865    8.3096
   15.000    8.4676
   15.135    8.8257
   15.270    8.4781
   15.405    8.3939
   15.540    8.6677
   15.675    7.9726
   15.810    8.2780
   15.945    8.7414
   16.080    8.7414
   16.215    8.6361
   16.350    8.0569
   16.485    8.6256
   16.620    8.6572
   16.755    8.6151
   16.890    8.1727
   17.025    8.3096
   17.160    8.6151
   17.295    8.7520
   17.430    8.1517
   17.565    8.4360
   17.700    8.4571
   17.835    8.6783
   17.970    8.8784
   18.105    8.8678
   18.240    8.5940
   18.375    8.4781
   18.510    8.4360
   18.645    8.7414
   18.780    8.4992
   18.915    8.9731
   19.050    9.2154
   19.185    9.2048
   19.320    8.5940
   19.455    8.7941
   19.590    9.0890
   19.725    9.1311
   19.860    8.8257
   19.995    8.8362
   20.130    8.8573
   20.265    9.3628
   20.400    8.5519
   20.535    8.9100
   20.670    8.8468
   20.805    9.3312
   20.940    8.6467
   21.075    9.2470
   21.210    9.3207
   21.345    9.2786
   21.480    9.1838
   21.615    8.5835
   21.750    9.1311
   21.885    8.9415
   22.020    9.5419
   22.155    9.2891
   22.290    9.1627
   22.425    8.4992
   22.560    8.7730
   22.695    9.1838
   22.830    9.3102
   22.965    8.9942
   23.100    8.9521
   23.235    9.1101
   23.370    8.7836
   23.505    9.1943
   23.640    8.6045
   23.775    8.4044
   23.910    8.6045
   24.045    8.7625
   24.180    8.9521
   24.315    8.4992
   24.450    8.6783
   24.585    8.6572
   24.720    8.3518
   24.855    8.2675
   24.990    8.4466
   25.125    8.7414
   25.260    8.3834
   25.395    8.4571
   25.530    8.1411
   25.665    8.0253
   25.800    8.1306
   25.935    8.1095
   26.070    8.2780
   26.205    7.9937
   26.340    8.1201
   26.475    8.2991
   26.610    8.1201
   26.745    8.3939
   26.880    7.8778
   27.015    8.1306
   27.150    7.8884
   27.285    7.5935
   27.420    8.2464
   27.555    7.9937
   27.690    7.8357
   27.825    7.6145
   27.960    8.0358
   28.095    7.8357
   28.230    7.6883
   28.365    7.4987
   28.500    7.5619
   28.635    7.7304
   28.770    7.8568
   28.905    7.7936
   29.040    7.8041
   29.175    7.8462
   29.310    7.9305
   29.445    7.7725
   29.580    7.4144
   29.715    7.4250
   29.850    7.3302
   29.985    7.3302
   30.120    7.1617
   30.255    7.6251
   30.390    7.3091
   30.525    7.5619
   30.660    6.7088
   30.795    7.4039
   30.930    7.6356
   31.065    7.2038
   31.200    7.1827
   31.335    6.8773
   31.470    7.1617
   31.605    7.0248
   31.740    6.7404
   31.875    7.0774
   32.010    7.1195
   32.145    7.1827
   32.280    7.1090
   32.415    7.2038
   32.550    6.7193
   32.685    7.0142
   32.820    6.6877
   32.955    6.9932
   33.090    6.8141
   33.225    6.6983
   33.360    6.9510
   33.495    6.9089
   33.630    6.5719
   33.765    6.3718
   33.900    6.4350
   34.035    6.8352
   34.170    6.3718
   34.305    6.6983
   34.440    6.4876
   34.575    6.4560
   34.710    6.6772
   34.845    7.0037
   34.980    7.0669
   35.115    6.1822
   35.250    6.7299
   35.385    6.7720
   35.520    6.4455
   35.655    6.3507
   35.790    6.8036
   35.925    6.8773
   36.060    6.5087
   36.195    6.5192
   36.330    6.4982
   36.465    5.9821
   36.600    6.8352
   36.735    6.7825
   36.870    6.7193
   37.005    6.5613
   37.140    6.0137
   37.275    6.2770
   37.410    5.9610
   37.545    6.2770
   37.680    6.3507
   37.815    6.2349
   37.950    6.1401
   38.085    6.4244
   38.220    6.1927
   38.355    6.4560
   38.490    6.5613
   38.625    6.4982
   38.760    6.0453
   38.895    6.5929
   39.030    5.7504
   39.165    6.7299
   39.300    6.1190
   39.435    6.4771
   39.570    6.2875
   39.705    6.2033
   39.840    6.3296
   39.975    6.5824
   39.990    6.2770