File: data/MOCOF-1/PXRD/PXRD_KE-045_Cu-Ka1_capillary-1mm_5s-deg.xyd
    1.500   17.2091
    1.635   15.3133
    1.770   15.2923
    1.905   15.1132
    2.040   15.1132
    2.175   15.3976
    2.310   15.8926
    2.445   17.1985
    2.580   19.0627
    2.715   21.5903
    2.850   25.4766
    2.985   31.7536
    3.120   41.1374
    3.255   55.7557
    3.390   87.0985
    3.525   99.1048
    3.660   48.8046
    3.795   50.4265
    3.930   73.1964
    4.065   40.6740
    4.200   33.9758
    4.335   23.5176
    4.470   13.6282
    4.605    9.6577
    4.740    8.2991
    4.875    7.6461
    5.010    7.2775
    5.145    7.6567
    5.280    8.3202
    5.415   10.6161
    5.550   17.4513
    5.685    5.2449
    5.820    5.6451
    5.955    5.6451
    6.090    5.8978
    6.225    5.5714
    6.360    6.0453
    6.495    6.5087
    6.630    7.8462
    6.765   11.4165
    6.900   12.7751
    7.035   11.9431
    7.170    6.7615
    7.305    6.1190
    7.440    6.2559
    7.575    6.4350
    7.710    6.8984
    7.845    8.5308
    7.980    7.1827
    8.115    7.3828
    8.250    8.0463
    8.385    7.7830
    8.520    8.3623
    8.655    7.0879
    8.790    6.9510
    8.925    5.8662
    9.060    5.5292
    9.195    5.8768
    9.330    6.1506
    9.465    6.4350
    9.600   10.1527
    9.735    4.9710
    9.870    4.6656
   10.005    5.0869
   10.140    5.2975
   10.275    5.8347
   10.410    6.2349
   10.545    5.5503
   10.680    5.1080
   10.815    5.3186
   10.950    5.0553
   11.085    6.0979
   11.220    4.7288
   11.355    5.0764
   11.490    5.0553
   11.625    5.1185
   11.760    6.4982
   11.895    4.9394
   12.030    5.1185
   12.165    5.2554
   12.300    5.6135
   12.435    5.3397
   12.570    5.4344
   12.705    5.6872
   12.840    5.5924
   12.975    6.4771
   13.110    5.0026
   13.245    5.2449
   13.380    5.1817
   13.515    5.2659
   13.650    5.3607
   13.785    5.3502
   13.920    5.4871
   14.055    5.4344
   14.190    5.4239
   14.325    4.5498
   14.460    4.7499
   14.595    5.2133
   14.730    4.9921
   14.865    5.0553
   15.000    4.5814
   15.135    5.0869
   15.270    5.0132
   15.405    4.9816
   15.540    4.9289
   15.675    4.5919
   15.810    5.0974
   15.945    4.6761
   16.080    5.1606
   16.215    4.7288
   16.350    4.9816
   16.485    4.6130
   16.620    4.7499
   16.755    4.8236
   16.890    4.5814
   17.025    4.9184
   17.160    5.2870
   17.295    4.4234
   17.430    4.5287
   17.565    5.1395
   17.700    4.6445
   17.835    4.8131
   17.970    5.0658
   18.105    4.9500
   18.240    5.1395
   18.375    4.9605
   18.510    4.6656
   18.645    4.7604
   18.780    4.5814
   18.915    4.6656
   19.050    4.6867
   19.185    4.7815
   19.320    4.8447
   19.455    5.0448
   19.590    5.2449
   19.725    5.4028
   19.860    5.1080
   19.995    5.0553
   20.130    5.2343
   20.265    5.2870
   20.400    5.8662
   20.535    5.2027
   20.670    5.2133
   20.805    5.4660
   20.940    5.2554
   21.075    5.2027
   21.210    5.1817
   21.345    5.1922
   21.480    5.1080
   21.615    5.5398
   21.750    5.3712
   21.885    5.2870
   22.020    5.2343
   22.155    5.0026
   22.290    5.3186
   22.425    5.2765
   22.560    5.8662
   22.695    5.4976
   22.830    5.4766
   22.965    5.6977
   23.100    4.8236
   23.235    5.3712
   23.370    5.0026
   23.505    4.9816
   23.640    5.1185
   23.775    4.8763
   23.910    4.7604
   24.045    4.8868
   24.180    5.0869
   24.315    4.8973
   24.450    5.0342
   24.585    4.9921
   24.720    5.3397
   24.855    4.5919
   24.990    5.0342
   25.125    4.5919
   25.260    4.9605
   25.395    4.5603
   25.530    4.9816
   25.665    4.4128
   25.800    5.0974
   25.935    4.6235
   26.070    4.7077
   26.205    4.7709
   26.340    4.1917
   26.475    4.5182
   26.610    4.3286
   26.745    4.4128
   26.880    4.5919
   27.015    4.9921
   27.150    4.6761
   27.285    4.6972
   27.420    4.3181
   27.555    4.6235
   27.690    4.5708
   27.825    4.5076
   27.960    4.4550
   28.095    4.3286
   28.230    4.9289
   28.365    4.3181
   28.500    4.6024
   28.635    4.1706
   28.770    4.3707
   28.905    4.2865
   29.040    4.5498
   29.175    4.2443
   29.310    4.1074
   29.445    4.6130
   29.580    4.5182
   29.715    4.1180
   29.850    4.0021
   29.985    4.3075
   30.120    4.2654
   30.255    3.9389
   30.390    3.7388
   30.525    4.0021
   30.660    4.2443
   30.795    3.6335
   30.930    4.1811
   31.065    4.1601
   31.200    3.8336
   31.335    4.0337
   31.470    4.1496
   31.605    4.2970
   31.740    4.1074
   31.875    4.3918
   32.010    3.8125
   32.145    3.9284
   32.280    3.8125
   32.415    3.8863
   32.550    3.9284
   32.685    3.7283
   32.820    3.7704
   32.955    3.4860
   33.090    3.8231
   33.225    3.8757
   33.360    3.4229
   33.495    3.8652
   33.630    3.7493
   33.765    3.4334
   33.900    3.5387
   34.035    3.6862
   34.170    3.3807
   34.305    3.4755
   34.440    3.6230
   34.575    3.3702
   34.710    3.3597
   34.845    3.4650
   34.980    3.2859
   35.115    3.3913
   35.250    3.5282
   35.385    3.4439
   35.520    3.4650
   35.655    3.2649
   35.790    3.3070
   35.925    3.2859
   36.060    3.1385
   36.195    3.2965
   36.330    3.2754
   36.465    3.4860
   36.600    3.0964
   36.735    3.2017
   36.870    3.1912
   37.005    2.8331
   37.140    3.5282
   37.275    3.3175
   37.410    3.4439
   37.545    3.2017
   37.680    2.9910
   37.815    3.2438
   37.950    3.1069
   38.085    2.8752
   38.220    3.2017
   38.355    3.0437
   38.490    2.9173
   38.625    2.9173
   38.760    3.1596
   38.895    3.3386
   39.030    2.7383
   39.165    3.0121
   39.300    3.1806
   39.435    2.9700
   39.570    2.9068
   39.705    3.0016
   39.840    3.1596
   39.975    3.1912
   39.990    3.1912