File: data/MOCOF-1/PXRD/PXRD_KE-199-2_Co-Ka1_capillary-1mm_5s-deg.xyd
    1.500   13.0658
    1.635   10.9042
    1.770    9.3419
    1.905    8.1648
    2.040    7.4585
    2.175    6.7202
    2.310    5.8641
    2.445    5.7464
    2.580    5.0187
    2.715    4.8796
    2.850    5.3505
    2.985    5.1792
    3.120    5.8106
    3.255    6.6667
    3.390    8.1006
    3.525    9.8555
    3.660   13.3975
    3.795   19.0155
    3.930   32.3060
    4.065   37.6886
    4.200   15.2060
    4.335   16.9181
    4.470   30.2836
    4.605   16.0300
    4.740   16.0407
    4.875   12.8732
    5.010    7.4157
    5.145    4.0128
    5.280    2.6752
    5.415    2.2686
    5.550    1.7764
    5.685    1.5623
    5.820    1.8299
    5.955    1.6907
    6.090    2.1402
    6.225    2.6645
    6.360    5.5966
    6.495    1.4553
    6.630    1.1022
    6.765    1.1343
    6.900    1.0487
    7.035    1.1771
    7.170    1.2520
    7.305    1.0166
    7.440    1.1129
    7.575    1.4981
    7.710    2.0653
    7.845    3.8844
    7.980    3.0926
    8.115    4.6335
    8.250    1.8406
    8.385    1.4660
    8.520    1.1985
    8.655    1.2627
    8.790    1.3055
    8.925    1.7657
    9.060    2.9106
    9.195    1.8192
    9.330    1.7335
    9.465    2.0225
    9.600    1.8941
    9.735    1.8406
    9.870    1.5837
   10.005    1.4981
   10.140    1.5302
   10.275    1.1343
   10.410    1.1771
   10.545    0.9738
   10.680    0.8882
   10.815    1.2199
   10.950    1.4874
   11.085    3.9914
   11.220    0.9203
   11.355    1.0487
   11.490    0.9203
   11.625    0.8989
   11.760    0.9631
   11.895    1.3055
   12.030    1.9476
   12.165    1.2627
   12.300    1.0487
   12.435    1.0166
   12.570    0.9096
   12.705    1.0594
   12.840    1.7871
   12.975    0.9203
   13.110    0.7919
   13.245    1.0701
   13.380    0.9952
   13.515    1.1985
   13.650    1.4660
   13.785    1.0594
   13.920    1.0808
   14.055    0.9524
   14.190    0.9738
   14.325    1.1343
   14.460    1.0701
   14.595    0.9096
   14.730    1.0273
   14.865    0.9631
   15.000    1.3911
   15.135    1.0701
   15.270    1.0808
   15.405    0.9203
   15.540    0.8133
   15.675    0.9738
   15.810    0.9310
   15.945    0.8561
   16.080    0.8989
   16.215    0.8240
   16.350    1.1557
   16.485    0.8668
   16.620    1.0273
   16.755    0.8240
   16.890    0.8668
   17.025    0.7705
   17.160    0.8240
   17.295    0.8454
   17.430    0.7919
   17.565    0.8989
   17.700    0.7170
   17.835    0.8347
   17.970    1.0059
   18.105    0.7598
   18.240    0.8668
   18.375    0.8240
   18.510    0.8240
   18.645    0.9203
   18.780    0.9631
   18.915    0.7812
   19.050    0.8347
   19.185    0.8454
   19.320    0.8561
   19.455    0.7812
   19.590    0.8026
   19.725    0.9096
   19.860    1.4232
   19.995    0.7384
   20.130    0.7063
   20.265    0.8347
   20.400    0.9738
   20.535    0.7277
   20.670    0.7812
   20.805    0.7705
   20.940    0.8133
   21.075    0.8240
   21.210    0.8347
   21.345    0.9417
   21.480    0.9738
   21.615    0.8775
   21.750    0.7919
   21.885    0.9310
   22.020    0.8775
   22.155    0.8882
   22.290    0.8668
   22.425    0.9845
   22.560    0.9952
   22.695    0.9417
   22.830    0.8989
   22.965    0.8133
   23.100    0.9845
   23.235    1.1985
   23.370    0.8882
   23.505    1.0487
   23.640    1.0808
   23.775    1.2092
   23.910    0.9096
   24.045    0.8989
   24.180    0.8775
   24.315    1.0273
   24.450    0.9310
   24.585    1.0380
   24.720    1.0808
   24.855    0.9845
   24.990    0.8882
   25.125    0.8775
   25.260    0.8668
   25.395    0.9738
   25.530    1.0915
   25.665    0.9631
   25.800    0.9310
   25.935    1.0808
   26.070    0.9096
   26.205    1.1557
   26.340    1.0594
   26.475    0.9631
   26.610    1.0701
   26.745    0.9203
   26.880    1.0594
   27.015    0.8026
   27.150    0.9845
   27.285    0.9310
   27.420    0.8882
   27.555    1.0380
   27.690    0.7063
   27.825    0.9631
   27.960    0.8561
   28.095    0.9631
   28.230    0.9738
   28.365    0.8668
   28.500    0.8882
   28.635    1.0594
   28.770    0.8026
   28.905    0.8775
   29.040    0.8561
   29.175    0.7598
   29.310    0.9203
   29.445    0.7812
   29.580    0.7170
   29.715    0.8561
   29.850    0.7812
   29.985    0.8133
   30.120    0.8561
   30.255    0.7705
   30.390    0.7170
   30.525    0.8133
   30.660    0.7384
   30.795    0.6849
   30.930    0.7063
   31.065    0.5993
   31.200    0.7063
   31.335    0.7812
   31.470    0.8775
   31.605    0.8561
   31.740    0.6849
   31.875    0.6528
   32.010    0.7063
   32.145    0.6635
   32.280    0.6421
   32.415    0.7384
   32.550    0.6635
   32.685    0.8133
   32.820    0.8133
   32.955    0.7063
   33.090    0.8240
   33.225    0.6421
   33.360    0.6742
   33.495    0.5993
   33.630    0.6100
   33.765    0.6849
   33.900    0.7170
   34.035    0.5778
   34.170    0.6742
   34.305    0.6849
   34.440    0.6421
   34.575    0.6635
   34.710    0.7063
   34.845    0.5671
   34.980    0.4494
   35.115    0.5778
   35.250    0.5564
   35.385    0.6528
   35.520    0.5778
   35.655    0.5029
   35.790    0.5243
   35.925    0.5136
   36.060    0.3959
   36.195    0.4494
   36.330    0.6742
   36.465    0.4815
   36.600    0.6742
   36.735    0.6528
   36.870    0.5243
   37.005    0.5993
   37.140    0.6207
   37.275    0.5886
   37.410    0.5029
   37.545    0.4922
   37.680    0.5136
   37.815    0.4173
   37.950    0.4922
   38.085    0.4708
   38.220    0.5029
   38.355    0.5029
   38.490    0.4601
   38.625    0.3959
   38.760    0.4922
   38.895    0.3959
   39.030    0.4708
   39.165    0.4815
   39.300    0.3959
   39.435    0.4387
   39.570    0.5243
   39.705    0.3745
   39.840    0.4280
   39.975    0.3852
   39.990    0.3959