File: data/MOCOF-1/PXRD/PXRD_KE-022_Cu-Ka1_capillary-1mm_5s-deg.xyd
    1.500   19.8736
    1.635   17.9989
    1.770   17.0195
    1.905   16.4297
    2.040   15.6503
    2.175   14.4286
    2.310   14.1232
    2.445   13.8599
    2.580   14.4076
    2.715   14.6077
    2.850   14.0916
    2.985   14.9236
    3.120   15.3765
    3.255   16.6298
    3.390   19.3681
    3.525   20.4318
    3.660   15.9663
    3.795   16.2823
    3.930   15.8294
    4.065   13.3228
    4.200   12.2801
    4.335   11.8589
    4.470   10.8689
    4.605   11.4165
    4.740   10.3318
    4.875   11.1848
    5.010   11.1638
    5.145   11.0900
    5.280   10.5108
    5.415   10.9426
    5.550   10.9847
    5.685   11.1848
    5.820   10.6793
    5.955   10.7846
    6.090   11.3639
    6.225   10.7109
    6.360   11.3112
    6.495   11.1322
    6.630   11.6272
    6.765   11.4376
    6.900   13.8178
    7.035   14.2075
    7.170   16.2823
    7.305   22.8963
    7.440   50.1422
    7.575   12.1854
    7.710   11.7430
    7.845   12.7857
    7.980   12.2380
    8.115   12.9858
    8.250   14.9868
    8.385   24.0337
    8.520   12.9963
    8.655   11.5850
    8.790   11.5745
    8.925   10.8373
    9.060   11.4165
    9.195   11.1743
    9.330   11.2480
    9.465   11.7220
    9.600   11.2691
    9.735   12.1959
    9.870   11.5640
   10.005   11.2059
   10.140   11.7325
   10.275   11.2691
   10.410   11.6166
   10.545   12.1959
   10.680   11.4797
   10.815   11.5956
   10.950   12.0274
   11.085   13.8705
   11.220   21.3375
   11.355   12.2486
   11.490   11.3639
   11.625   11.1216
   11.760   11.1111
   11.895   11.3112
   12.030   11.2691
   12.165   10.6477
   12.300   10.3844
   12.435   10.8057
   12.570   11.1216
   12.705   11.0795
   12.840   10.8268
   12.975   11.0269
   13.110   10.4160
   13.245   10.4897
   13.380   10.8478
   13.515   11.5219
   13.650   10.7004
   13.785   11.0690
   13.920   10.1843
   14.055   10.4055
   14.190   10.8689
   14.325   10.1106
   14.460   11.1427
   14.595    9.7946
   14.730   10.7741
   14.865   10.8689
   15.000   11.4271
   15.135   10.7952
   15.270   10.6793
   15.405   11.6272
   15.540   11.9431
   15.675   10.2791
   15.810   10.4371
   15.945   10.5845
   16.080   10.6898
   16.215   10.1527
   16.350   10.5635
   16.485   10.7214
   16.620   10.4160
   16.755   11.0479
   16.890   11.1848
   17.025   10.6266
   17.160   10.7741
   17.295   10.7214
   17.430   10.7109
   17.565   10.3528
   17.700   10.3739
   17.835    9.9842
   17.970   10.3633
   18.105   10.9005
   18.240   10.8268
   18.375   10.5424
   18.510   10.8689
   18.645   10.6161
   18.780   10.1948
   18.915   10.8162
   19.050   10.6688
   19.185   10.3739
   19.320   10.3107
   19.455   10.5003
   19.590    9.9315
   19.725   10.5213
   19.860   10.6898
   19.995   10.8162
   20.130   10.7214
   20.265   11.7746
   20.400   11.0374
   20.535   10.7741
   20.670   10.4476
   20.805   10.9110
   20.940   10.5740
   21.075   10.7320
   21.210   11.3112
   21.345   11.1638
   21.480   11.3112
   21.615   11.4587
   21.750   10.7530
   21.885   10.9005
   22.020   11.8062
   22.155   10.9426
   22.290   10.6161
   22.425   10.8583
   22.560   10.8478
   22.695   10.8794
   22.830   11.3849
   22.965   11.3323
   23.100   10.9110
   23.235   10.5319
   23.370   10.8583
   23.505   10.7952
   23.640   10.7320
   23.775   11.6798
   23.910   10.8162
   24.045   11.0374
   24.180   11.1216
   24.315   12.5013
   24.450   12.3117
   24.585   10.7530
   24.720   10.7530
   24.855   10.6477
   24.990   10.9637
   25.125   10.5951
   25.260   10.6372
   25.395   10.9531
   25.530   10.6056
   25.665   10.8373
   25.800   10.2475
   25.935   10.8478
   26.070   10.5003
   26.205   10.9215
   26.340   11.6904
   26.475   10.9953
   26.610   11.3744
   26.745   10.7530
   26.880   10.5635
   27.015   10.5740
   27.150   10.3318
   27.285   10.2475
   27.420   10.4581
   27.555   10.5635
   27.690   11.5324
   27.825   10.6793
   27.960   10.9005
   28.095   10.3107
   28.230   10.2475
   28.365   10.5740
   28.500   10.7530
   28.635   10.3633
   28.770   10.2264
   28.905   10.3528
   29.040   10.2580
   29.175   10.1422
   29.310   10.1001
   29.445   10.3528
   29.580   10.3002
   29.715   10.6793
   29.850   10.1001
   29.985    9.8894
   30.120    9.7314
   30.255   10.2264
   30.390   10.3318
   30.525   10.1422
   30.660   10.3528
   30.795   10.4371
   30.930    9.7420
   31.065   10.2054
   31.200   10.3528
   31.335   10.6688
   31.470   10.1001
   31.605   10.0369
   31.740   10.1527
   31.875    9.8368
   32.010   10.3002
   32.145   10.0579
   32.280    9.9526
   32.415    9.7630
   32.550   10.0053
   32.685    9.9421
   32.820    9.7630
   32.955   10.2264
   33.090    9.8578
   33.225   10.2580
   33.360   10.5003
   33.495   10.3739
   33.630    9.8368
   33.765    9.8157
   33.900    9.6893
   34.035    9.9842
   34.170   10.4160
   34.305   10.1527
   34.440    9.8157
   34.575    9.5840
   34.710    9.7736
   34.845   10.4265
   34.980   10.1001
   35.115    9.7209
   35.250    9.3312
   35.385    9.3207
   35.520    9.7525
   35.655    9.6367
   35.790   10.0579
   35.925    9.3944
   36.060    9.4050
   36.195    9.3312
   36.330    9.6577
   36.465    9.5735
   36.600    9.1627
   36.735    9.2154
   36.870    9.4260
   37.005    9.4787
   37.140    9.3523
   37.275    9.3312
   37.410    9.5945
   37.545    9.4471
   37.680    9.2891
   37.815    9.3944
   37.950    9.5524
   38.085    9.5419
   38.220    9.4576
   38.355    9.8789
   38.490    9.5313
   38.625    9.5735
   38.760   10.5635
   38.895    9.2048
   39.030    9.9315
   39.165   10.1316
   39.300    9.6472
   39.435    9.5208
   39.570    9.0469
   39.705    9.2575
   39.840    9.5419
   39.975    9.5629
   39.990    9.5840