File: data/MOCOF-1/PXRD/PXRD_KE-049-3_Cu-Ka1_capillary-1mm_5s-deg.xyd
    1.500   22.9279
    1.530   23.4545
    1.560   22.7699
    1.590   22.6119
    1.620   21.7904
    1.650   22.3802
    1.680   21.5587
    1.710   21.0005
    1.740   21.3797
    1.770   20.9479
    1.800   21.1585
    1.830   20.8847
    1.860   20.1474
    1.890   20.3476
    1.920   19.5577
    1.950   19.7472
    1.980   20.1580
    2.010   19.3681
    2.040   19.9473
    2.070   20.4002
    2.100   19.7367
    2.130   20.4002
    2.160   20.1896
    2.190   20.7162
    2.220   20.7688
    2.250   20.3370
    2.280   21.1269
    2.310   22.0011
    2.340   21.3586
    2.370   21.8009
    2.400   22.4118
    2.430   21.9905
    2.460   23.1596
    2.490   23.8020
    2.520   24.5919
    2.550   25.6451
    2.580   25.4976
    2.610   26.6772
    2.640   27.3407
    2.670   27.7093
    2.700   28.1833
    2.730   30.8162
    2.760   30.3844
    2.790   32.7014
    2.820   34.3760
    2.850   34.3233
    2.880   35.8820
    2.910   38.2306
    2.940   39.8526
    2.970   42.5908
    3.000   43.6756
    3.030   46.5403
    3.060   48.1517
    3.090   51.7536
    3.120   56.1980
    3.150   58.4308
    3.180   62.5908
    3.210   67.4776
    3.240   73.2175
    3.270   78.5255
    3.300   84.9605
    3.330   96.1453
    3.360  107.0248
    3.390  121.1796
    3.420  139.8210
    3.450  157.3671
    3.480  170.2686
    3.510  152.8278
    3.540  115.2607
    3.570   77.7778
    3.600   55.1343
    3.630   46.5929
    3.660   44.4655
    3.690   42.9489
    3.720   43.0542
    3.750   44.9710
    3.780   47.0669
    3.810   51.2270
    3.840   56.3139
    3.870   60.0105
    3.900   67.2670
    3.930   70.4160
    3.960   71.9958
    3.990   70.8373
    4.020   73.1438
    4.050   77.9463
    4.080   79.2522
    4.110   77.6514
    4.140   74.5340
    4.170   68.9731
    4.200   59.5998
    4.230   52.8910
    4.260   43.7493
    4.290   38.3465
    4.320   31.3007
    4.350   26.3402
    4.380   23.0332
    4.410   19.3681
    4.440   17.0300
    4.470   14.8078
    4.500   13.6072
    4.530   12.2380
    4.560   11.3955
    4.590   10.8373
    4.620   10.0474
    4.650    9.3628
    4.680    9.7209
    4.710    9.6261
    4.740    9.0047
    4.770    8.8573
    4.800    9.0890
    4.830    8.6361
    4.860    8.2886
    4.890    8.3412
    4.920    8.5624
    4.950    8.5308
    4.980    8.6783
    5.010    8.2675
    5.040    8.3834
    5.070    8.1833
    5.100    8.5519
    5.130    8.5729
    5.160    8.4044
    5.190    8.3307
    5.220    8.4360
    5.250    8.0042
    5.280    8.7730
    5.310    8.2570
    5.340    8.7520
    5.370    8.8468
    5.400    8.9731
    5.430    9.9631
    5.460    9.4787
    5.490   10.7214
    5.520   10.8057
    5.550   11.0163
    5.580   10.0263
    5.610    7.9305
    5.640    7.2565
    5.670    7.2459
    5.700    7.5935
    5.730    6.9300
    5.760    6.9616
    5.790    6.8036
    5.820    6.9194
    5.850    7.5619
    5.880    7.1722
    5.910    7.3091
    5.940    6.9089
    5.970    6.8141
    6.000    7.2775
    6.030    7.0248
    6.060    6.9616
    6.090    7.3512
    6.120    6.9300
    6.150    7.0879
    6.180    7.4460
    6.210    7.3091
    6.240    7.4250
    6.270    7.4144
    6.300    7.4355
    6.330    7.6356
    6.360    7.7514
    6.390    7.8146
    6.420    8.1622
    6.450    8.4044
    6.480    8.1622
    6.510    8.8889
    6.540    8.5940
    6.570    9.0258
    6.600   10.2791
    6.630   10.2264
    6.660   10.7320
    6.690   10.8794
    6.720   12.0906
    6.750   12.7436
    6.780   13.9126
    6.810   14.6919
    6.840   15.6925
    6.870   16.7667
    6.900   19.3154
    6.930   22.0537
    6.960   24.0337
    6.990   23.4123
    7.020   20.8320
    7.050   15.9768
    7.080   12.4697
    7.110   10.2054
    7.140    8.2991
    7.170    8.1517
    7.200    8.0042
    7.230    7.6567
    7.260    7.6672
    7.290    7.7409
    7.320    7.6988
    7.350    7.2880
    7.380    7.7620
    7.410    7.9516
    7.440    7.9621
    7.470    7.6988
    7.500    7.7514
    7.530    7.6883
    7.560    8.2149
    7.590    7.5619
    7.620    8.2570
    7.650    8.3623
    7.680    8.6361
    7.710    8.9521
    7.740    9.0363
    7.770    9.1417
    7.800    9.4155
    7.830    9.8368
    7.860   10.2159
    7.890   10.0579
    7.920   10.0369
    7.950   10.9847
    7.980   11.3428
    8.010   11.0269
    8.040   11.7430
    8.070   11.8273
    8.100   12.5434
    8.130   13.3860
    8.160   13.2175
    8.190   13.6598
    8.220   13.9547
    8.250   13.5018
    8.280   13.7757
    8.310   13.6914
    8.340   12.7120
    8.370   13.0174
    8.400   12.7225
    8.430   12.7541
    8.460   12.0274
    8.490   11.6588
    8.520   11.7852
    8.550   11.2164
    8.580   10.3107
    8.610   10.5213
    8.640   10.4687
    8.670    9.6788
    8.700    9.5945
    8.730    8.8784
    8.760    9.0469
    8.790    8.4676
    8.820    8.0042
    8.850    8.4044
    8.880    8.3518
    8.910    8.3939
    8.940    7.7830
    8.970    7.6883
    9.000    7.9200
    9.030    7.7199
    9.060    7.7199
    9.090    8.0358
    9.120    7.8989
    9.150    8.0885
    9.180    8.5624
    9.210    8.8573
    9.240    9.4576
    9.270    9.7946
    9.300    9.4997
    9.330    9.4471
    9.360    9.3628
    9.390    8.6993
    9.420    8.4255
    9.450    8.7414
    9.480    8.0674
    9.510    8.0990
    9.540    8.4992
    9.570    8.8046
    9.600    8.5940
    9.630    8.2570
    9.660    7.6567
    9.690    7.5197
    9.720    6.9194
    9.750    7.1827
    9.780    6.9721
    9.810    6.8036
    9.840    6.8246
    9.870    7.0669
    9.900    6.8773
    9.930    7.3407
    9.960    7.0458
    9.990    7.0669