File: data/MOCOF-1/PXRD/PXRD_KE-245_Co-Ka1_capillary-1mm_5s-deg.xyd
    1.500    2.8357
    1.635    2.6859
    1.770    2.1830
    1.905    1.8941
    2.040    1.6051
    2.175    1.3483
    2.310    1.3804
    2.445    1.1343
    2.580    1.0487
    2.715    1.2092
    2.850    0.9738
    2.985    0.9952
    3.120    1.3911
    3.255    1.3376
    3.390    1.6693
    3.525    2.3542
    3.660    3.3815
    3.795    3.6490
    3.930    3.1354
    4.065    2.7073
    4.200    2.1616
    4.335    1.7764
    4.470    1.5623
    4.605    1.3055
    4.740    1.0915
    4.875    0.8668
    5.010    0.7705
    5.145    0.6421
    5.280    0.5564
    5.415    0.6421
    5.550    0.5457
    5.685    0.6635
    5.820    0.5457
    5.955    0.5136
    6.090    0.4708
    6.225    0.4601
    6.360    0.4066
    6.495    0.4922
    6.630    0.4922
    6.765    0.4815
    6.900    0.5886
    7.035    0.5029
    7.170    0.3745
    7.305    0.5029
    7.440    0.5886
    7.575    0.7277
    7.710    0.8026
    7.845    0.8133
    7.980    0.6635
    8.115    0.6421
    8.250    0.5457
    8.385    0.5671
    8.520    0.6849
    8.655    0.7063
    8.790    0.6314
    8.925    0.5457
    9.060    0.6528
    9.195    0.5350
    9.330    0.5350
    9.465    0.5564
    9.600    0.5671
    9.735    0.5136
    9.870    0.4494
   10.005    0.4922
   10.140    0.5564
   10.275    0.4601
   10.410    0.4173
   10.545    0.4173
   10.680    0.5671
   10.815    0.4173
   10.950    0.4280
   11.085    0.3638
   11.220    0.5350
   11.355    0.4387
   11.490    0.5029
   11.625    0.4708
   11.760    0.4494
   11.895    0.5029
   12.030    0.6100
   12.165    0.4815
   12.300    0.3852
   12.435    0.5029
   12.570    0.4815
   12.705    0.3745
   12.840    0.4708
   12.975    0.4708
   13.110    0.4066
   13.245    0.5136
   13.380    0.4601
   13.515    0.4601
   13.650    0.4066
   13.785    0.4066
   13.920    0.4815
   14.055    0.4387
   14.190    0.4815
   14.325    0.4494
   14.460    0.3959
   14.595    0.3638
   14.730    0.3638
   14.865    0.5457
   15.000    0.3424
   15.135    0.3638
   15.270    0.4066
   15.405    0.4494
   15.540    0.4280
   15.675    0.3745
   15.810    0.4173
   15.945    0.4387
   16.080    0.3745
   16.215    0.3852
   16.350    0.4922
   16.485    0.3959
   16.620    0.3959
   16.755    0.3317
   16.890    0.3424
   17.025    0.4173
   17.160    0.4066
   17.295    0.3317
   17.430    0.3959
   17.565    0.3210
   17.700    0.4173
   17.835    0.3424
   17.970    0.4387
   18.105    0.4066
   18.240    0.3210
   18.375    0.3852
   18.510    0.3959
   18.645    0.3959
   18.780    0.5564
   18.915    0.3424
   19.050    0.4708
   19.185    0.3852
   19.320    0.4601
   19.455    0.4280
   19.590    0.4601
   19.725    0.3531
   19.860    0.3317
   19.995    0.2889
   20.130    0.4601
   20.265    0.3959
   20.400    0.2782
   20.535    0.4601
   20.670    0.3103
   20.805    0.4173
   20.940    0.4494
   21.075    0.4494
   21.210    0.3317
   21.345    0.3531
   21.480    0.2889
   21.615    0.4922
   21.750    0.4494
   21.885    0.3317
   22.020    0.3531
   22.155    0.4173
   22.290    0.4280
   22.425    0.4708
   22.560    0.4066
   22.695    0.3317
   22.830    0.3852
   22.965    0.4280
   23.100    0.4494
   23.235    0.3959
   23.370    0.3745
   23.505    0.5029
   23.640    0.3959
   23.775    0.5350
   23.910    0.4494
   24.045    0.4280
   24.180    0.5886
   24.315    0.4387
   24.450    0.4387
   24.585    0.5136
   24.720    0.4173
   24.855    0.4815
   24.990    0.5778
   25.125    0.4708
   25.260    0.5671
   25.395    0.4066
   25.530    0.4280
   25.665    0.5029
   25.800    0.3638
   25.935    0.5778
   26.070    0.4173
   26.205    0.3745
   26.340    0.5136
   26.475    0.3852
   26.610    0.4173
   26.745    0.3959
   26.880    0.4922
   27.015    0.4815
   27.150    0.5350
   27.285    0.5029
   27.420    0.3959
   27.555    0.4066
   27.690    0.5136
   27.825    0.5136
   27.960    0.4708
   28.095    0.4815
   28.230    0.4708
   28.365    0.3531
   28.500    0.5029
   28.635    0.4066
   28.770    0.3638
   28.905    0.6314
   29.040    0.3424
   29.175    0.3852
   29.310    0.4066
   29.445    0.4280
   29.580    0.3852
   29.715    0.4708
   29.850    0.4708
   29.985    0.4280
   30.120    0.4280
   30.255    0.3424
   30.390    0.3424
   30.525    0.4280
   30.660    0.3424
   30.795    0.3531
   30.930    0.3638
   31.065    0.4601
   31.200    0.3959
   31.335    0.3317
   31.470    0.4066
   31.605    0.3745
   31.740    0.4173
   31.875    0.4280
   32.010    0.4494
   32.145    0.4280
   32.280    0.3959
   32.415    0.3103
   32.550    0.3531
   32.685    0.4066
   32.820    0.4066
   32.955    0.4066
   33.090    0.4280
   33.225    0.4066
   33.360    0.3424
   33.495    0.3745
   33.630    0.2996
   33.765    0.4708
   33.900    0.3638
   34.035    0.3745
   34.170    0.3531
   34.305    0.2568
   34.440    0.3424
   34.575    0.3745
   34.710    0.3424
   34.845    0.3424
   34.980    0.2568
   35.115    0.3317
   35.250    0.3317
   35.385    0.2675
   35.520    0.3745
   35.655    0.2140
   35.790    0.2675
   35.925    0.2996
   36.060    0.3103
   36.195    0.3103
   36.330    0.2889
   36.465    0.3852
   36.600    0.3531
   36.735    0.2675
   36.870    0.3210
   37.005    0.2889
   37.140    0.2782
   37.275    0.2782
   37.410    0.3531
   37.545    0.2996
   37.680    0.3210
   37.815    0.2568
   37.950    0.2140
   38.085    0.1605
   38.220    0.2996
   38.355    0.2889
   38.490    0.1498
   38.625    0.2354
   38.760    0.2675
   38.895    0.2354
   39.030    0.1712
   39.165    0.3745
   39.300    0.2675
   39.435    0.2247
   39.570    0.2033
   39.705    0.2568
   39.840    0.1498
   39.975    0.2675
   39.990    0.1712