File: data/MOCOF-1/PXRD/PXRD_KE-114_Cu-Ka1_capillary-1mm_5s-deg.xyd
    1.500   30.0685
    1.635   26.7509
    1.770   24.0442
    1.905   21.5692
    2.040   20.3370
    2.175   21.1058
    2.310   21.2954
    2.445   23.3386
    2.580   24.7183
    2.715   28.3518
    2.850   34.2075
    2.985   41.8641
    3.120   56.6298
    3.255   77.7988
    3.390  125.1922
    3.525   99.3892
    3.660   46.0874
    3.795   47.7620
    3.930   55.6714
    4.065   54.7657
    4.200   41.6324
    4.335   25.3818
    4.470   15.8926
    4.605   11.1006
    4.740    9.2048
    4.875    8.1095
    5.010    7.7199
    5.145    7.1195
    5.280    7.0774
    5.415    6.6561
    5.550    6.3402
    5.685    5.8873
    5.820    5.8347
    5.955    5.8873
    6.090    6.2559
    6.225    6.2981
    6.360    6.7825
    6.495    7.3934
    6.630    8.2359
    6.765   11.1006
    6.900   17.3144
    7.035   13.6282
    7.170    7.6567
    7.305    6.7930
    7.440    7.0879
    7.575    7.2354
    7.710    7.2038
    7.845    8.0990
    7.980    9.2048
    8.115    9.5629
    8.250    9.7736
    8.385    9.0574
    8.520    8.7414
    8.655    7.3828
    8.790    6.4244
    8.925    6.4982
    9.060    5.9505
    9.195    5.7083
    9.330    5.9294
    9.465    5.8241
    9.600    5.5503
    9.735    5.2449
    9.870    5.4344
   10.005    5.3712
   10.140    5.2765
   10.275    5.7188
   10.410    6.1717
   10.545    5.7293
   10.680    5.2870
   10.815    5.4134
   10.950    5.6556
   11.085    5.0974
   11.220    5.3397
   11.355    5.5292
   11.490    5.1080
   11.625    5.3186
   11.760    5.7715
   11.895    5.4871
   12.030    6.0664
   12.165    6.0558
   12.300    6.1190
   12.435    5.8136
   12.570    5.6451
   12.705    5.7083
   12.840    5.7715
   12.975    5.7083
   13.110    5.9189
   13.245    5.6451
   13.380    5.4766
   13.515    5.5503
   13.650    5.5714
   13.785    5.3923
   13.920    5.6977
   14.055    5.5187
   14.190    5.3397
   14.325    5.2343
   14.460    5.3397
   14.595    5.1817
   14.730    4.7815
   14.865    4.8447
   15.000    5.2765
   15.135    5.5292
   15.270    5.4239
   15.405    5.2870
   15.540    5.1290
   15.675    5.5503
   15.810    5.8347
   15.945    5.6977
   16.080    5.2554
   16.215    5.2343
   16.350    5.2975
   16.485    5.3502
   16.620    5.0764
   16.755    4.9289
   16.890    5.3607
   17.025    5.2027
   17.160    5.2659
   17.295    5.2238
   17.430    5.6767
   17.565    5.3397
   17.700    5.1922
   17.835    5.2449
   17.970    5.6240
   18.105    5.0342
   18.240    4.9394
   18.375    5.3712
   18.510    5.4766
   18.645    4.9078
   18.780    5.7293
   18.915    5.2554
   19.050    5.2870
   19.185    5.5082
   19.320    5.2449
   19.455    5.3502
   19.590    5.9610
   19.725    5.6029
   19.860    6.3086
   19.995    5.7293
   20.130    6.2138
   20.265    6.2875
   20.400    5.6767
   20.535    5.7820
   20.670    5.8347
   20.805    5.5608
   20.940    5.6556
   21.075    6.0769
   21.210    6.0979
   21.345    5.8768
   21.480    6.0032
   21.615    5.9189
   21.750    6.2138
   21.885    5.6240
   22.020    5.9716
   22.155    6.3402
   22.290    6.3928
   22.425    5.6661
   22.560    6.0664
   22.695    5.6767
   22.830    5.6240
   22.965    5.9189
   23.100    6.1190
   23.235    5.4660
   23.370    5.7083
   23.505    5.2975
   23.640    5.5608
   23.775    5.9084
   23.910    5.4028
   24.045    5.6240
   24.180    5.3081
   24.315    5.6345
   24.450    5.6240
   24.585    5.9610
   24.720    5.5398
   24.855    5.4028
   24.990    5.2238
   25.125    5.0553
   25.260    5.5608
   25.395    5.4344
   25.530    5.1185
   25.665    5.4871
   25.800    5.3186
   25.935    5.2975
   26.070    5.0448
   26.205    4.9184
   26.340    5.3607
   26.475    4.8025
   26.610    4.6867
   26.745    5.0448
   26.880    5.1080
   27.015    5.2554
   27.150    4.8236
   27.285    4.9289
   27.420    4.9184
   27.555    4.6130
   27.690    5.0026
   27.825    5.0658
   27.960    4.7709
   28.095    4.9710
   28.230    5.2449
   28.365    4.7920
   28.500    5.0026
   28.635    4.9921
   28.770    4.5182
   28.905    4.8341
   29.040    4.7604
   29.175    4.5392
   29.310    4.6445
   29.445    4.8973
   29.580    4.5814
   29.715    4.6972
   29.850    4.3707
   29.985    4.4023
   30.120    4.6972
   30.255    4.5603
   30.390    4.6235
   30.525    4.5708
   30.660    4.5919
   30.795    4.7183
   30.930    5.1080
   31.065    4.3181
   31.200    4.2759
   31.335    4.7077
   31.470    4.4023
   31.605    4.9605
   31.740    4.5287
   31.875    4.6445
   32.010    4.5498
   32.145    4.4444
   32.280    4.9289
   32.415    4.7288
   32.550    4.2759
   32.685    4.2654
   32.820    4.4655
   32.955    4.4550
   33.090    4.1285
   33.225    4.1917
   33.360    4.2127
   33.495    4.1180
   33.630    4.0232
   33.765    4.4234
   33.900    4.3181
   34.035    4.2865
   34.170    4.2233
   34.305    4.2970
   34.440    3.8968
   34.575    4.0337
   34.710    3.7493
   34.845    4.0653
   34.980    4.0021
   35.115    4.1601
   35.250    3.7283
   35.385    4.0232
   35.520    4.2865
   35.655    3.7809
   35.790    3.9494
   35.925    3.6756
   36.060    4.0337
   36.195    4.1496
   36.330    3.8863
   36.465    4.0442
   36.600    3.7388
   36.735    3.6440
   36.870    3.8863
   37.005    3.7704
   37.140    3.8125
   37.275    4.1180
   37.410    3.7283
   37.545    4.1074
   37.680    3.5598
   37.815    3.7915
   37.950    3.7915
   38.085    3.6335
   38.220    3.8547
   38.355    3.4229
   38.490    3.8757
   38.625    3.6335
   38.760    3.8652
   38.895    3.8652
   39.030    3.6335
   39.165    3.5387
   39.300    3.5808
   39.435    3.6546
   39.570    3.5387
   39.705    3.7388
   39.840    3.8125
   39.975    3.8757
   39.990    3.5808