File: data/MOCOF-1/PXRD/PXRD_KE-149-2_Cu-Ka1_capillary-1mm_5s-deg.xyd
    1.500   42.1274
    1.635   36.3033
    1.770   30.9321
    1.905   27.2775
    2.040   24.2233
    2.175   21.7272
    2.310   20.3054
    2.445   19.0627
    2.580   18.5782
    2.715   18.3254
    2.850   17.5355
    2.985   17.9674
    3.120   19.7262
    3.255   22.8541
    3.390   27.0879
    3.525   30.7109
    3.660   38.7256
    3.795   59.6840
    3.930   53.5650
    4.065   14.4076
    4.200   11.1006
    4.335   10.1632
    4.470    9.3102
    4.605    9.1943
    4.740    9.3628
    4.875    9.4471
    5.010   10.2370
    5.145   11.2902
    5.280   13.0174
    5.415   17.1985
    5.550   16.7246
    5.685    9.0469
    5.820    8.5203
    5.955    8.2570
    6.090    8.0147
    6.225    8.4360
    6.360    8.6045
    6.495    8.8468
    6.630   10.1948
    6.765   11.4165
    6.900    8.8784
    7.035    8.0885
    7.170    8.5940
    7.305    8.3096
    7.440    8.6783
    7.575    9.0995
    7.710   10.6372
    7.845   10.8057
    7.980    8.3939
    8.115    8.7098
    8.250    8.2886
    8.385    8.2991
    8.520    8.7098
    8.655    8.6783
    8.790    8.8046
    8.925    8.4360
    9.060    8.6256
    9.195    9.2154
    9.330    9.6998
    9.465   12.1959
    9.600   14.2285
    9.735    8.7941
    9.870    9.2786
   10.005    8.7098
   10.140    9.2891
   10.275   10.4160
   10.410    9.8999
   10.545    8.1833
   10.680    7.9937
   10.815    8.7309
   10.950    9.2786
   11.085   10.0263
   11.220    8.6993
   11.355    7.8146
   11.490    8.5203
   11.625    8.9837
   11.760    9.6893
   11.895    7.9937
   12.030    7.5408
   12.165    7.5408
   12.300    7.4882
   12.435    7.5724
   12.570    7.3828
   12.705    7.1090
   12.840    8.0569
   12.975    8.7204
   13.110    7.1827
   13.245    7.4144
   13.380    7.3934
   13.515    7.8462
   13.650    7.7725
   13.785    7.3407
   13.920    7.2354
   14.055    7.8989
   14.190    7.7093
   14.325    7.4882
   14.460    7.4039
   14.595    7.1933
   14.730    6.9510
   14.865    6.5403
   15.000    7.0353
   15.135    7.3407
   15.270    7.2565
   15.405    7.2670
   15.540    7.2880
   15.675    7.4460
   15.810    7.1195
   15.945    7.2565
   16.080    7.4566
   16.215    7.6567
   16.350    7.6356
   16.485    7.5303
   16.620    7.9621
   16.755    7.1827
   16.890    7.1933
   17.025    7.9200
   17.160    7.4776
   17.295    7.3407
   17.430    7.1301
   17.565    7.2038
   17.700    7.0142
   17.835    7.3302
   17.970    7.3934
   18.105    7.2038
   18.240    7.1617
   18.375    7.5513
   18.510    7.6567
   18.645    7.3196
   18.780    7.1090
   18.915    8.3728
   19.050    8.3939
   19.185    6.9405
   19.320    7.3407
   19.455    7.6251
   19.590    7.6672
   19.725    7.3828
   19.860    7.5513
   19.995    7.2775
   20.130    7.4671
   20.265    7.3407
   20.400    8.2886
   20.535    7.4671
   20.670    7.6145
   20.805    7.5197
   20.940    7.1933
   21.075    7.3302
   21.210    7.3828
   21.345    7.4671
   21.480    7.5619
   21.615    7.0774
   21.750    7.4250
   21.885    8.3939
   22.020    7.5513
   22.155    7.4882
   22.290    8.0358
   22.425    7.9831
   22.560    9.2786
   22.695    7.9516
   22.830    8.5413
   22.965    8.6572
   23.100    8.2886
   23.235    8.0147
   23.370    7.8989
   23.505    7.8989
   23.640    8.5729
   23.775    7.6461
   23.910    7.9831
   24.045    7.4987
   24.180    7.2354
   24.315    7.6461
   24.450    7.4460
   24.585    7.6777
   24.720    7.2249
   24.855    7.2459
   24.990    7.5303
   25.125    7.5619
   25.260    7.3723
   25.395    7.2880
   25.530    7.7409
   25.665    7.3934
   25.800    7.5303
   25.935    7.6883
   26.070    7.4355
   26.205    6.9089
   26.340    7.0142
   26.475    7.4039
   26.610    7.3091
   26.745    7.0669
   26.880    6.8352
   27.015    7.3934
   27.150    7.1301
   27.285    7.0774
   27.420    6.9194
   27.555    7.0669
   27.690    7.3091
   27.825    7.1301
   27.960    8.0147
   28.095    7.6040
   28.230    7.6356
   28.365    6.7930
   28.500    7.0985
   28.635    7.0774
   28.770    6.4876
   28.905    7.9726
   29.040    7.4671
   29.175    6.9721
   29.310    6.9300
   29.445    6.6983
   29.580    6.9300
   29.715    6.6772
   29.850    6.5613
   29.985    7.2143
   30.120    6.9826
   30.255    6.4666
   30.390    6.5403
   30.525    6.7825
   30.660    6.6351
   30.795    6.3191
   30.930    6.4560
   31.065    6.6877
   31.200    6.5613
   31.335    6.2243
   31.470    6.7825
   31.605    6.8668
   31.740    7.5408
   31.875    7.2670
   32.010    7.6040
   32.145    8.5624
   32.280    6.3823
   32.415    5.9400
   32.550    6.6667
   32.685    6.1085
   32.820    6.2981
   32.955    6.3507
   33.090    6.1822
   33.225    6.4876
   33.360    6.3191
   33.495    6.4350
   33.630    6.1611
   33.765    7.4671
   33.900    7.1722
   34.035    6.6140
   34.170    6.0558
   34.305    6.4034
   34.440    6.3507
   34.575    6.2033
   34.710    5.7188
   34.845    6.0558
   34.980    5.9505
   35.115    5.8031
   35.250    6.2665
   35.385    6.2559
   35.520    5.7820
   35.655    5.9084
   35.790    5.8873
   35.925    5.8031
   36.060    6.0032
   36.195    5.8978
   36.330    6.0979
   36.465    5.8347
   36.600    5.8136
   36.735    5.5608
   36.870    5.7083
   37.005    5.9926
   37.140    5.7188
   37.275    5.8347
   37.410    5.6556
   37.545    5.8662
   37.680    5.6451
   37.815    6.1611
   37.950    6.1717
   38.085    5.5924
   38.220    6.1717
   38.355    5.5608
   38.490    6.2665
   38.625    6.2559
   38.760    5.9400
   38.895    5.7083
   39.030    5.8347
   39.165    5.9610
   39.300    5.8136
   39.435    5.7820
   39.570    5.6767
   39.705    5.7399
   39.840    5.8557
   39.975    5.6240
   39.990    5.5608