File: data/MOCOF-1/PXRD/PXRD_KE-066_Cu-Ka1_capillary-1mm_5s-deg.xyd
    1.500   22.1906
    1.635   22.0326
    1.770   20.4318
    1.905   19.5682
    2.040   18.6414
    2.175   18.9047
    2.310   19.3997
    2.445   20.4529
    2.580   17.2301
    2.715   15.9768
    2.850   15.8083
    2.985   14.8289
    3.120   14.0600
    3.255   13.0174
    3.390   12.7646
    3.525   11.4376
    3.660   11.4060
    3.795   11.3112
    3.930   10.6161
    4.065   10.6161
    4.200   10.5529
    4.335   10.6266
    4.470   10.3949
    4.605   10.4897
    4.740   10.1211
    4.875   10.8373
    5.010   12.2064
    5.145   10.9531
    5.280   10.1843
    5.415   10.1106
    5.550   10.8583
    5.685   11.0795
    5.820   10.5108
    5.955   10.4160
    6.090    9.3839
    6.225    9.7525
    6.360    9.8894
    6.495   10.5319
    6.630   10.1948
    6.765   11.3955
    6.900   12.1748
    7.035   11.4376
    7.170   10.3739
    7.305    9.6261
    7.440   10.3633
    7.575    9.6472
    7.710    9.7525
    7.845    9.9842
    7.980    9.5524
    8.115    9.4681
    8.250    9.4681
    8.385   10.0053
    8.520   10.0895
    8.655   11.2164
    8.790    9.9526
    8.925   10.4792
    9.060    9.6472
    9.195    9.1627
    9.330   10.5424
    9.465   10.0579
    9.600   10.9426
    9.735   10.4160
    9.870   10.4371
   10.005   11.4481
   10.140   10.8899
   10.275   12.0379
   10.410   12.0800
   10.545   10.2686
   10.680   10.6266
   10.815   10.7109
   10.950   10.9847
   11.085   11.2902
   11.220   11.4376
   11.355   10.3949
   11.490    9.2154
   11.625    9.5945
   11.760   10.4055
   11.895    9.8789
   12.030    9.0890
   12.165    9.2154
   12.300    8.8889
   12.435    9.0679
   12.570    8.9731
   12.705    9.2048
   12.840    8.7730
   12.975    8.6467
   13.110    8.1517
   13.245    8.4255
   13.380    8.4255
   13.515    8.6256
   13.650    8.8889
   13.785    8.2254
   13.920    8.3939
   14.055    8.2570
   14.190    8.1938
   14.325    9.0785
   14.460    8.7098
   14.595    8.4255
   14.730    8.0358
   14.865    8.3307
   15.000    9.6261
   15.135    9.2996
   15.270    8.7836
   15.405    8.6572
   15.540    8.2149
   15.675    8.0042
   15.810    8.6783
   15.945    9.6893
   16.080    8.9205
   16.215    8.5308
   16.350    8.4992
   16.485    9.0995
   16.620    8.3202
   16.755    8.5835
   16.890    8.6677
   17.025    8.4781
   17.160    8.3412
   17.295    8.6256
   17.430    8.9626
   17.565    8.4887
   17.700    8.5203
   17.835    8.8046
   17.970    9.1522
   18.105    9.7314
   18.240   10.0790
   18.375    9.2891
   18.510    8.3834
   18.645    8.1517
   18.780    8.3412
   18.915    8.9205
   19.050   10.6688
   19.185    8.4676
   19.320    8.3728
   19.455    8.4992
   19.590    8.7414
   19.725    8.5203
   19.860    8.7414
   19.995    8.4360
   20.130    8.7098
   20.265    8.4255
   20.400    8.5097
   20.535    8.5940
   20.670    8.4571
   20.805    8.7941
   20.940    8.5940
   21.075    8.4992
   21.210    8.8257
   21.345    8.7730
   21.480    8.8152
   21.615    9.1311
   21.750    8.5413
   21.885    8.8994
   22.020    8.3728
   22.155    8.6993
   22.290    8.5413
   22.425    8.9942
   22.560    8.6256
   22.695    9.0153
   22.830    8.7098
   22.965    9.0469
   23.100    9.6051
   23.235    9.1838
   23.370    9.1206
   23.505    8.8468
   23.640    9.1417
   23.775    8.2886
   23.910    8.7204
   24.045    8.0779
   24.180    8.5097
   24.315    8.7730
   24.450    8.4150
   24.585    8.9942
   24.720    8.3412
   24.855    8.3623
   24.990    8.6151
   25.125    9.4681
   25.260    9.2680
   25.395    9.1838
   25.530    8.7520
   25.665    8.9100
   25.800    8.2780
   25.935    8.3939
   26.070    8.5729
   26.205    8.2359
   26.340    8.2780
   26.475    8.4044
   26.610    8.3202
   26.745    8.7730
   26.880    8.2254
   27.015    8.1517
   27.150    8.1938
   27.285    7.5829
   27.420    8.2570
   27.555    7.9200
   27.690    8.2254
   27.825    7.6883
   27.960    8.0674
   28.095    9.2996
   28.230    8.0885
   28.365    7.9305
   28.500    8.0358
   28.635    7.6040
   28.770    7.3407
   28.905    8.0674
   29.040    9.2259
   29.175    7.4144
   29.310    7.8041
   29.445    7.7093
   29.580    7.7936
   29.715    7.3091
   29.850    7.8462
   29.985    7.1511
   30.120    7.1090
   30.255    7.6356
   30.390    7.7936
   30.525    7.8568
   30.660    7.5724
   30.795    7.4355
   30.930    7.4987
   31.065    7.5619
   31.200    7.3196
   31.335    7.4355
   31.470    7.4776
   31.605    7.2880
   31.740    7.2986
   31.875    7.5829
   32.010    7.8041
   32.145    9.8157
   32.280    7.6251
   32.415    7.6251
   32.550    7.4355
   32.685    7.0985
   32.820    7.0879
   32.955    7.1827
   33.090    7.1722
   33.225    7.2880
   33.360    7.1511
   33.495    7.4776
   33.630    6.9721
   33.765    7.4250
   33.900    7.9621
   34.035    7.2038
   34.170    7.1933
   34.305    6.8457
   34.440    6.6667
   34.575    6.7299
   34.710    6.4139
   34.845    6.7509
   34.980    6.9510
   35.115    6.6667
   35.250    7.0563
   35.385    6.9616
   35.520    7.1511
   35.655    6.8668
   35.790    7.1511
   35.925    6.6772
   36.060    6.9510
   36.195    6.9721
   36.330    6.6983
   36.465    6.6456
   36.600    6.8984
   36.735    7.2354
   36.870    6.7825
   37.005    6.9300
   37.140    6.7193
   37.275    6.8036
   37.410    6.9300
   37.545    7.2775
   37.680    6.6772
   37.815    6.7509
   37.950    6.7299
   38.085    6.5929
   38.220    6.6983
   38.355    6.5929
   38.490    7.0037
   38.625    7.3723
   38.760    6.8773
   38.895    6.8984
   39.030    6.5403
   39.165    6.5192
   39.300    6.3823
   39.435    6.5824
   39.570    6.5613
   39.705    6.8984
   39.840    6.4876
   39.975    6.5087
   39.990    6.5087