File: data/MOCOF-1/PXRD/PXRD_KE-142_Cu-Ka1_capillary-1mm_5s-deg.xyd
    1.500   22.9068
    1.635   19.1364
    1.770   17.2617
    1.905   15.2607
    2.040   13.5334
    2.175   12.2170
    2.310   11.3849
    2.445   10.6582
    2.580    9.9947
    2.715    9.1522
    2.850    8.8573
    2.985    8.4571
    3.120    7.8568
    3.255    7.8462
    3.390    7.4776
    3.525    7.1511
    3.660    7.8884
    3.795    7.1090
    3.930    7.0142
    4.065    7.2670
    4.200    7.0248
    4.335    7.0248
    4.470    6.5929
    4.605    7.0563
    4.740    6.2665
    4.875    6.2665
    5.010    6.1927
    5.145    6.5719
    5.280    6.1190
    5.415    5.9505
    5.550    6.2875
    5.685    6.0769
    5.820    6.1717
    5.955    5.9610
    6.090    6.2559
    6.225    5.8031
    6.360    5.8347
    6.495    6.2665
    6.630    6.4560
    6.765    6.1295
    6.900    6.1295
    7.035    5.9716
    7.170    6.1085
    7.305    6.4034
    7.440    6.4771
    7.575    6.1295
    7.710    6.1927
    7.845    6.1717
    7.980    6.0453
    8.115    6.2349
    8.250    5.7609
    8.385    6.1401
    8.520    6.0874
    8.655    6.2349
    8.790    6.1717
    8.925    6.1717
    9.060    6.0242
    9.195    5.9610
    9.330    6.0032
    9.465    6.0242
    9.600    5.9084
    9.735    5.9821
    9.870    6.3507
   10.005    6.0348
   10.140    6.0558
   10.275    5.6661
   10.410    6.2665
   10.545    5.7083
   10.680    5.9189
   10.815    5.9505
   10.950    6.2559
   11.085    6.0769
   11.220    6.2349
   11.355    5.5924
   11.490    5.6661
   11.625    5.1290
   11.760    5.8768
   11.895    6.0242
   12.030    6.2349
   12.165    5.5608
   12.300    5.9821
   12.435    5.6345
   12.570    5.6872
   12.705    5.7188
   12.840    5.4134
   12.975    5.7715
   13.110    5.8136
   13.245    5.3502
   13.380    5.5819
   13.515    5.1711
   13.650    5.8136
   13.785    5.4344
   13.920    6.0664
   14.055    5.6977
   14.190    5.6240
   14.325    5.3923
   14.460    5.5187
   14.595    5.5608
   14.730    5.6767
   14.865    5.3291
   15.000    5.7715
   15.135    5.4871
   15.270    5.9084
   15.405    5.5187
   15.540    5.7609
   15.675    5.5503
   15.810    5.7925
   15.945    6.0769
   16.080    6.4034
   16.215    6.0664
   16.350    6.2349
   16.485    5.9400
   16.620    5.5714
   16.755    5.9926
   16.890    5.5819
   17.025    5.6135
   17.160    5.6977
   17.295    5.5608
   17.430    5.6767
   17.565    6.0453
   17.700    5.6451
   17.835    5.4871
   17.970    5.7188
   18.105    5.5819
   18.240    5.8031
   18.375    5.7715
   18.510    6.0137
   18.645    5.9821
   18.780    5.8136
   18.915    6.1295
   19.050    6.0242
   19.185    5.8873
   19.320    5.8452
   19.455    5.8873
   19.590    5.8347
   19.725    5.7715
   19.860    5.9400
   19.995    6.1085
   20.130    5.8031
   20.265    6.0137
   20.400    6.0032
   20.535    5.9610
   20.670    6.0137
   20.805    5.9610
   20.940    5.8347
   21.075    5.7083
   21.210    6.0453
   21.345    5.9084
   21.480    5.9821
   21.615    5.9505
   21.750    5.8241
   21.885    5.7925
   22.020    5.8873
   22.155    5.7188
   22.290    5.8241
   22.425    5.5503
   22.560    5.8241
   22.695    6.0558
   22.830    5.8662
   22.965    5.8241
   23.100    5.9400
   23.235    5.8557
   23.370    5.7715
   23.505    5.5608
   23.640    5.8662
   23.775    5.8347
   23.910    5.7925
   24.045    5.8136
   24.180    5.2765
   24.315    5.8452
   24.450    5.5398
   24.585    5.8873
   24.720    5.6767
   24.855    5.5187
   24.990    5.9505
   25.125    5.7083
   25.260    5.6661
   25.395    5.2554
   25.530    5.7399
   25.665    5.5503
   25.800    5.4555
   25.935    5.6451
   26.070    5.3502
   26.205    5.4766
   26.340    5.2554
   26.475    5.6240
   26.610    5.4344
   26.745    5.4450
   26.880    5.6872
   27.015    5.7609
   27.150    5.2343
   27.285    5.0658
   27.420    5.2870
   27.555    5.4660
   27.690    5.6029
   27.825    5.3712
   27.960    5.4976
   28.095    5.4660
   28.230    5.4239
   28.365    5.1817
   28.500    5.3923
   28.635    5.4344
   28.770    4.9710
   28.905    5.2659
   29.040    5.2975
   29.175    5.2238
   29.310    5.0764
   29.445    5.0448
   29.580    4.9078
   29.715    4.9921
   29.850    4.8657
   29.985    5.0764
   30.120    5.0026
   30.255    4.6867
   30.390    5.0448
   30.525    4.8341
   30.660    4.7077
   30.795    5.2554
   30.930    4.8552
   31.065    4.8447
   31.200    4.8131
   31.335    4.7077
   31.470    5.0974
   31.605    5.1395
   31.740    5.1395
   31.875    5.1290
   32.010    5.3502
   32.145    5.1606
   32.280    4.3602
   32.415    4.7709
   32.550    4.8763
   32.685    5.0237
   32.820    4.6340
   32.955    4.3918
   33.090    4.5603
   33.225    4.2865
   33.360    4.2233
   33.495    4.3075
   33.630    4.1601
   33.765    4.5708
   33.900    4.3602
   34.035    4.7288
   34.170    4.2338
   34.305    4.4760
   34.440    4.1811
   34.575    4.1496
   34.710    4.2233
   34.845    4.0548
   34.980    4.2654
   35.115    4.1917
   35.250    4.1390
   35.385    4.0864
   35.520    3.9179
   35.655    3.9179
   35.790    4.1811
   35.925    3.8863
   36.060    4.0969
   36.195    4.0548
   36.330    3.9916
   36.465    4.4023
   36.600    3.9284
   36.735    3.9179
   36.870    4.3391
   37.005    4.1285
   37.140    4.3075
   37.275    3.9389
   37.410    4.0548
   37.545    3.8652
   37.680    4.0653
   37.815    3.9389
   37.950    3.8441
   38.085    4.1496
   38.220    4.0232
   38.355    4.2022
   38.490    3.9600
   38.625    4.1601
   38.760    4.1496
   38.895    3.8441
   39.030    4.2443
   39.165    4.2970
   39.300    4.4444
   39.435    4.2654
   39.570    3.9810
   39.705    4.0969
   39.840    3.9705
   39.975    3.6230
   39.990    3.7177