File: data/MOCOF-1/PXRD/PXRD_KE-204_Cu-Ka1_capillary-1mm_5s-deg.xyd
    1.500    5.8557
    1.635    5.4450
    1.770    4.8973
    1.905    4.4866
    2.040    4.1074
    2.175    3.9494
    2.310    3.8968
    2.445    3.5492
    2.580    3.4755
    2.715    3.1069
    2.850    2.9595
    2.985    2.9279
    3.120    3.0016
    3.255    2.5592
    3.390    2.7593
    3.525    3.0332
    3.660    2.2854
    3.795    2.5592
    3.930    2.4539
    4.065    2.5592
    4.200    2.5382
    4.335    2.2012
    4.470    2.3381
    4.605    2.2117
    4.740    2.3275
    4.875    2.1485
    5.010    2.1906
    5.145    2.3381
    5.280    2.2538
    5.415    2.2538
    5.550    2.0853
    5.685    2.2959
    5.820    2.1169
    5.955    2.0326
    6.090    2.0432
    6.225    1.9273
    6.360    1.9589
    6.495    2.0221
    6.630    1.9800
    6.765    1.9168
    6.900    2.0748
    7.035    1.8536
    7.170    2.0011
    7.305    2.0642
    7.440    2.1169
    7.575    2.1274
    7.710    1.9168
    7.845    1.8220
    7.980    1.8220
    8.115    1.8641
    8.250    1.7483
    8.385    1.8220
    8.520    1.8536
    8.655    1.6535
    8.790    1.7062
    8.925    1.8641
    9.060    1.8220
    9.195    1.7694
    9.330    1.5903
    9.465    1.8220
    9.600    1.7378
    9.735    1.6219
    9.870    1.6114
   10.005    1.6008
   10.140    1.6640
   10.275    1.5377
   10.410    1.8957
   10.545    1.7062
   10.680    1.6746
   10.815    1.6219
   10.950    1.6746
   11.085    1.5903
   11.220    1.8747
   11.355    1.6851
   11.490    1.5903
   11.625    1.6746
   11.760    1.5166
   11.895    1.5587
   12.030    1.4639
   12.165    1.8220
   12.300    1.5061
   12.435    1.6114
   12.570    1.5377
   12.705    1.4955
   12.840    1.5903
   12.975    1.7062
   13.110    1.5271
   13.245    1.4745
   13.380    1.5271
   13.515    1.6008
   13.650    1.7694
   13.785    1.8115
   13.920    1.7167
   14.055    1.4745
   14.190    1.7272
   14.325    1.5587
   14.460    1.7694
   14.595    1.7799
   14.730    1.7588
   14.865    1.5798
   15.000    1.6851
   15.135    1.5166
   15.270    1.6535
   15.405    1.6008
   15.540    1.7167
   15.675    1.6535
   15.810    1.6008
   15.945    1.7062
   16.080    1.4639
   16.215    1.5903
   16.350    1.5061
   16.485    1.4745
   16.620    1.5166
   16.755    1.6008
   16.890    1.6640
   17.025    1.5903
   17.160    1.6746
   17.295    1.5482
   17.430    1.8536
   17.565    1.5061
   17.700    1.6430
   17.835    1.6008
   17.970    1.7062
   18.105    1.5587
   18.240    1.7272
   18.375    1.5587
   18.510    1.6430
   18.645    1.7062
   18.780    1.6324
   18.915    1.5903
   19.050    1.6640
   19.185    1.5482
   19.320    1.8220
   19.455    1.6219
   19.590    1.5587
   19.725    1.6219
   19.860    1.6956
   19.995    1.8115
   20.130    1.7588
   20.265    1.6956
   20.400    1.5482
   20.535    1.6640
   20.670    1.5692
   20.805    1.6746
   20.940    1.5692
   21.075    1.5587
   21.210    1.6535
   21.345    1.6430
   21.480    1.4429
   21.615    1.5482
   21.750    1.6535
   21.885    1.5377
   22.020    1.4639
   22.155    1.5903
   22.290    1.5903
   22.425    1.5482
   22.560    1.8115
   22.695    1.8009
   22.830    1.6535
   22.965    1.4745
   23.100    1.6219
   23.235    1.7588
   23.370    1.7167
   23.505    1.6640
   23.640    1.6114
   23.775    1.6535
   23.910    1.5061
   24.045    1.4745
   24.180    1.5587
   24.315    1.6324
   24.450    1.6219
   24.585    1.4323
   24.720    1.6219
   24.855    1.5271
   24.990    1.5166
   25.125    1.4323
   25.260    1.6430
   25.395    1.3481
   25.530    1.4429
   25.665    1.3481
   25.800    1.4007
   25.935    1.5271
   26.070    1.3902
   26.205    1.5482
   26.340    1.2322
   26.475    1.4218
   26.610    1.4850
   26.745    1.4850
   26.880    1.2533
   27.015    1.3270
   27.150    1.4745
   27.285    1.2849
   27.420    1.1480
   27.555    1.2428
   27.690    1.1585
   27.825    1.2744
   27.960    1.3797
   28.095    1.1796
   28.230    1.3586
   28.365    1.3797
   28.500    1.3691
   28.635    1.3060
   28.770    1.2744
   28.905    1.4745
   29.040    1.1796
   29.175    1.1058
   29.310    1.3060
   29.445    1.2533
   29.580    1.2638
   29.715    1.1690
   29.850    1.2849
   29.985    1.2849
   30.120    1.0637
   30.255    1.1058
   30.390    1.1164
   30.525    1.2217
   30.660    1.2112
   30.795    1.2638
   30.930    1.0848
   31.065    0.9479
   31.200    1.1480
   31.335    1.1058
   31.470    1.0848
   31.605    1.2322
   31.740    1.1690
   31.875    1.1164
   32.010    0.9584
   32.145    0.9689
   32.280    1.0742
   32.415    0.8847
   32.550    1.0953
   32.685    0.9795
   32.820    1.0427
   32.955    1.0321
   33.090    0.8636
   33.225    0.8636
   33.360    0.9584
   33.495    1.0637
   33.630    0.8636
   33.765    0.9479
   33.900    0.8847
   34.035    0.8215
   34.170    0.9268
   34.305    0.7583
   34.440    0.8847
   34.575    0.8215
   34.710    0.8847
   34.845    0.8952
   34.980    0.9163
   35.115    0.8320
   35.250    0.8215
   35.385    0.8425
   35.520    0.6740
   35.655    0.7372
   35.790    0.6740
   35.925    0.7583
   36.060    0.7794
   36.195    0.7794
   36.330    0.6951
   36.465    0.9057
   36.600    0.6530
   36.735    0.7056
   36.870    0.6846
   37.005    0.6530
   37.140    0.5898
   37.275    0.7267
   37.410    0.6003
   37.545    0.7162
   37.680    0.6319
   37.815    0.6424
   37.950    0.5898
   38.085    0.5371
   38.220    0.7372
   38.355    0.6003
   38.490    0.6003
   38.625    0.6951
   38.760    0.6530
   38.895    0.5793
   39.030    0.5371
   39.165    0.6214
   39.300    0.5266
   39.435    0.6319
   39.570    0.5371
   39.705    0.4423
   39.840    0.5477
   39.975    0.5055
   39.990    0.4634