File: data/MOCOF-1/PXRD/PXRD_KE-203_Cu-Ka1_capillary-1mm_5s-deg.xyd
    1.500    9.7314
    1.635    8.3202
    1.770    7.6777
    1.905    6.4034
    2.040    5.9716
    2.175    5.7715
    2.310    5.6240
    2.445    5.1395
    2.580    5.1922
    2.715    6.0242
    2.850    7.3934
    2.985    9.6472
    3.120   13.9968
    3.255   23.0542
    3.390   35.0816
    3.525   28.8257
    3.660   17.2512
    3.795   15.4397
    3.930   15.4186
    4.065   13.7441
    4.200   11.2796
    4.335    8.1095
    4.470    5.7188
    4.605    4.7499
    4.740    3.7493
    4.875    3.4439
    5.010    3.3597
    5.145    2.8225
    5.280    2.5592
    5.415    2.7278
    5.550    2.4223
    5.685    2.3802
    5.820    2.5698
    5.955    2.5066
    6.090    2.4855
    6.225    2.7172
    6.360    2.3907
    6.495    2.6014
    6.630    3.0437
    6.765    3.6019
    6.900    4.7815
    7.035    4.3497
    7.170    3.3070
    7.305    2.7067
    7.440    2.6751
    7.575    2.6224
    7.710    2.9279
    7.845    2.8752
    7.980    3.1490
    8.115    2.9595
    8.250    2.9279
    8.385    2.7804
    8.520    3.1174
    8.655    2.7172
    8.790    2.4750
    8.925    2.5698
    9.060    2.2854
    9.195    2.4223
    9.330    2.4539
    9.465    2.3381
    9.600    1.9695
    9.735    1.9800
    9.870    1.9589
   10.005    2.1696
   10.140    2.2222
   10.275    2.3697
   10.410    2.3486
   10.545    2.1380
   10.680    2.2012
   10.815    1.9695
   10.950    2.2854
   11.085    2.0748
   11.220    2.0432
   11.355    2.2854
   11.490    2.0642
   11.625    2.0853
   11.760    2.3591
   11.895    2.1380
   12.030    2.3065
   12.165    2.1380
   12.300    2.2222
   12.435    2.0537
   12.570    2.2433
   12.705    2.2117
   12.840    2.3275
   12.975    2.2538
   13.110    2.1485
   13.245    2.1906
   13.380    2.1380
   13.515    2.1590
   13.650    2.3065
   13.785    2.0537
   13.920    2.0326
   14.055    2.0116
   14.190    2.1801
   14.325    2.0537
   14.460    2.1380
   14.595    2.1906
   14.730    2.2012
   14.865    1.8325
   15.000    2.0853
   15.135    1.9695
   15.270    1.8852
   15.405    2.0537
   15.540    2.1274
   15.675    2.0853
   15.810    1.7904
   15.945    1.8536
   16.080    2.2433
   16.215    1.9589
   16.350    1.9484
   16.485    2.0853
   16.620    2.2012
   16.755    2.1485
   16.890    1.7904
   17.025    2.0221
   17.160    1.9905
   17.295    2.0958
   17.430    2.0116
   17.565    2.1590
   17.700    1.9273
   17.835    1.8115
   17.970    2.1696
   18.105    2.1485
   18.240    2.2643
   18.375    1.9905
   18.510    1.9800
   18.645    1.9695
   18.780    2.0748
   18.915    1.9695
   19.050    2.2012
   19.185    2.2222
   19.320    2.0116
   19.455    1.9800
   19.590    2.3697
   19.725    2.2538
   19.860    2.1485
   19.995    2.3486
   20.130    2.2012
   20.265    2.3591
   20.400    2.3275
   20.535    2.2959
   20.670    2.0537
   20.805    2.2117
   20.940    2.3275
   21.075    2.4118
   21.210    2.2854
   21.345    2.3591
   21.480    2.0642
   21.615    2.3275
   21.750    2.2222
   21.885    2.3065
   22.020    2.5276
   22.155    2.1590
   22.290    2.4645
   22.425    2.1801
   22.560    2.4013
   22.695    2.1485
   22.830    2.2538
   22.965    2.0853
   23.100    2.0748
   23.235    2.1380
   23.370    2.0326
   23.505    2.0116
   23.640    2.3275
   23.775    2.0642
   23.910    1.9800
   24.045    2.3381
   24.180    2.1169
   24.315    2.0116
   24.450    2.0537
   24.585    2.1485
   24.720    2.2222
   24.855    2.1274
   24.990    2.0011
   25.125    1.9800
   25.260    1.8957
   25.395    2.3275
   25.530    2.1169
   25.665    1.9695
   25.800    2.0116
   25.935    1.9589
   26.070    1.7799
   26.205    1.7904
   26.340    2.0853
   26.475    1.9695
   26.610    1.8431
   26.745    2.1274
   26.880    1.7694
   27.015    1.8747
   27.150    1.8115
   27.285    2.0221
   27.420    1.8747
   27.555    1.9168
   27.690    1.9695
   27.825    1.7588
   27.960    1.7272
   28.095    1.7904
   28.230    1.7483
   28.365    2.1064
   28.500    1.7483
   28.635    2.0116
   28.770    1.9379
   28.905    1.8325
   29.040    1.8431
   29.175    1.8431
   29.310    2.0221
   29.445    1.4850
   29.580    1.8957
   29.715    1.7588
   29.850    1.6746
   29.985    1.6851
   30.120    1.4534
   30.255    1.7167
   30.390    1.6324
   30.525    1.7378
   30.660    1.6956
   30.795    1.7588
   30.930    1.6114
   31.065    1.7378
   31.200    1.6956
   31.335    1.5271
   31.470    1.5377
   31.605    1.6114
   31.740    1.5903
   31.875    1.6324
   32.010    1.6535
   32.145    1.5903
   32.280    1.5903
   32.415    1.5377
   32.550    1.7062
   32.685    1.4745
   32.820    1.4639
   32.955    1.4639
   33.090    1.4745
   33.225    1.3165
   33.360    1.4323
   33.495    1.5903
   33.630    1.4639
   33.765    1.4955
   33.900    1.4850
   34.035    1.2849
   34.170    1.3375
   34.305    1.3375
   34.440    1.4429
   34.575    1.0321
   34.710    1.2322
   34.845    1.3060
   34.980    1.3797
   35.115    1.1585
   35.250    1.2533
   35.385    1.3691
   35.520    1.2744
   35.655    1.1269
   35.790    1.2744
   35.925    1.2217
   36.060    1.3691
   36.195    1.2744
   36.330    1.1058
   36.465    1.3375
   36.600    1.2533
   36.735    1.2217
   36.870    1.3060
   37.005    1.3060
   37.140    1.2322
   37.275    1.1901
   37.410    1.0111
   37.545    1.1690
   37.680    1.1796
   37.815    1.3060
   37.950    1.1901
   38.085    1.1796
   38.220    1.1164
   38.355    1.1374
   38.490    1.2006
   38.625    1.2849
   38.760    1.2533
   38.895    1.3060
   39.030    1.0953
   39.165    1.0321
   39.300    1.1690
   39.435    1.1164
   39.570    1.2533
   39.705    1.0321
   39.840    1.1796
   39.975    1.1164
   39.990    1.0216