File: data/MOCOF-1/PXRD/PXRD_KE-190_Cu-Ka1_capillary-1mm_5s-deg.xyd
    1.500   14.5761
    1.635   13.0490
    1.770   12.2591
    1.905   11.5219
    2.040   10.4371
    2.175   10.4897
    2.310   10.5740
    2.445   10.7636
    2.580   11.6272
    2.715   13.4387
    2.850   16.9458
    2.985   24.1496
    3.120   37.1353
    3.255   63.4545
    3.390  125.4239
    3.525   71.1111
    3.660   35.9031
    3.795   46.8878
    3.930   50.3949
    4.065   56.6403
    4.200   43.7388
    4.335   19.3470
    4.470   10.4581
    4.605    7.1511
    4.740    6.2243
    4.875    5.6240
    5.010    5.0974
    5.145    5.0448
    5.280    5.6345
    5.415    7.1301
    5.550    4.9078
    5.685    4.3918
    5.820    4.1601
    5.955    3.7599
    6.090    4.0442
    6.225    4.2549
    6.360    4.1074
    6.495    4.5182
    6.630    5.6345
    6.765    8.4360
    6.900   15.5872
    7.035    9.4155
    7.170    5.5714
    7.305    4.5603
    7.440    4.5076
    7.575    4.7920
    7.710    5.4555
    7.845    5.6767
    7.980    6.2770
    8.115    7.3618
    8.250    7.3512
    8.385    7.4460
    8.520    6.3718
    8.655    5.3818
    8.790    4.3286
    8.925    4.1601
    9.060    3.8020
    9.195    3.5282
    9.330    3.7599
    9.465    4.6235
    9.600    4.4339
    9.735    3.6230
    9.870    3.4123
   10.005    3.4439
   10.140    3.5914
   10.275    4.6024
   10.410    4.2970
   10.545    3.9284
   10.680    3.6440
   10.815    3.3281
   10.950    3.6440
   11.085    3.6546
   11.220    3.3807
   11.355    3.6124
   11.490    3.4860
   11.625    3.9600
   11.760    3.9073
   11.895    3.7283
   12.030    4.2022
   12.165    3.9494
   12.300    4.2338
   12.435    4.0337
   12.570    4.4234
   12.705    3.9179
   12.840    4.0758
   12.975    4.2233
   13.110    3.6440
   13.245    3.8441
   13.380    3.7809
   13.515    4.0232
   13.650    3.6124
   13.785    3.5387
   13.920    3.8441
   14.055    4.1601
   14.190    3.7388
   14.325    3.5914
   14.460    3.3913
   14.595    3.5598
   14.730    3.3807
   14.865    3.5808
   15.000    3.2333
   15.135    3.6862
   15.270    3.5492
   15.405    3.5598
   15.540    3.4966
   15.675    3.4650
   15.810    3.5492
   15.945    3.6335
   16.080    3.5176
   16.215    3.6019
   16.350    3.7809
   16.485    3.4860
   16.620    3.3386
   16.755    3.3281
   16.890    3.4966
   17.025    3.8441
   17.160    3.4650
   17.295    3.4755
   17.430    3.6546
   17.565    3.5492
   17.700    3.8441
   17.835    3.4860
   17.970    3.5914
   18.105    3.7493
   18.240    3.5282
   18.375    3.7915
   18.510    3.5282
   18.645    3.4860
   18.780    3.6335
   18.915    3.8125
   19.050    3.6546
   19.185    3.8441
   19.320    3.2859
   19.455    3.8125
   19.590    3.9494
   19.725    3.9916
   19.860    4.1917
   19.995    4.3602
   20.130    4.0337
   20.265    3.9389
   20.400    4.0337
   20.535    3.7704
   20.670    3.9073
   20.805    4.5708
   20.940    4.0969
   21.075    3.9494
   21.210    4.0021
   21.345    4.0548
   21.480    3.9810
   21.615    4.0548
   21.750    3.9810
   21.885    4.1917
   22.020    3.8968
   22.155    3.9600
   22.290    3.8652
   22.425    4.2022
   22.560    4.6130
   22.695    4.0232
   22.830    3.8757
   22.965    4.3813
   23.100    3.8020
   23.235    4.2127
   23.370    3.8441
   23.505    3.5598
   23.640    3.6440
   23.775    3.5808
   23.910    3.5492
   24.045    3.8125
   24.180    3.5176
   24.315    3.5808
   24.450    3.5071
   24.585    3.7388
   24.720    3.5282
   24.855    3.5282
   24.990    3.4123
   25.125    3.5492
   25.260    3.6440
   25.395    3.3175
   25.530    3.2122
   25.665    3.6546
   25.800    3.2543
   25.935    3.2333
   26.070    3.4755
   26.205    3.4123
   26.340    3.2333
   26.475    3.2333
   26.610    3.4966
   26.745    3.2754
   26.880    3.2227
   27.015    3.6862
   27.150    3.0332
   27.285    3.2017
   27.420    3.4439
   27.555    3.2333
   27.690    3.0858
   27.825    3.3702
   27.960    3.4650
   28.095    3.5703
   28.230    3.4123
   28.365    3.3175
   28.500    3.4966
   28.635    3.1385
   28.770    3.2227
   28.905    3.3913
   29.040    2.9384
   29.175    3.2333
   29.310    3.3913
   29.445    3.3597
   29.580    2.9805
   29.715    3.0016
   29.850    3.1701
   29.985    3.1174
   30.120    3.0226
   30.255    3.1701
   30.390    2.9068
   30.525    2.9384
   30.660    3.1701
   30.795    3.4966
   30.930    3.2649
   31.065    3.0648
   31.200    3.2543
   31.335    2.9279
   31.470    3.0753
   31.605    3.0437
   31.740    3.2017
   31.875    3.1701
   32.010    3.4966
   32.145    3.4018
   32.280    3.0542
   32.415    3.0964
   32.550    2.9595
   32.685    3.0964
   32.820    3.0858
   32.955    2.9489
   33.090    3.0437
   33.225    2.7699
   33.360    2.6751
   33.495    2.8015
   33.630    3.0226
   33.765    2.7909
   33.900    2.9279
   34.035    2.9595
   34.170    2.6646
   34.305    2.8331
   34.440    2.8752
   34.575    2.8331
   34.710    2.7488
   34.845    2.7804
   34.980    2.7699
   35.115    2.7067
   35.250    2.6330
   35.385    2.6856
   35.520    2.5698
   35.655    2.6856
   35.790    2.7278
   35.925    2.3170
   36.060    2.6224
   36.195    2.5171
   36.330    2.4855
   36.465    2.5276
   36.600    2.8225
   36.735    2.6330
   36.870    2.7383
   37.005    2.6014
   37.140    2.5803
   37.275    2.6224
   37.410    2.6224
   37.545    2.5276
   37.680    2.4750
   37.815    2.5592
   37.950    2.4118
   38.085    2.5171
   38.220    2.5908
   38.355    2.4539
   38.490    2.5487
   38.625    2.7909
   38.760    2.6751
   38.895    2.7172
   39.030    2.6014
   39.165    2.6330
   39.300    2.6856
   39.435    2.4223
   39.570    2.7488
   39.705    2.5487
   39.840    2.3170
   39.975    2.6856
   39.990    2.8225