File: data/MOCOF-1/PXRD/PXRD_KE-111_Cu-Ka1_capillary-1mm_5s-deg.xyd
    1.500   13.6177
    1.635   11.6166
    1.770   10.2264
    1.905    9.4155
    2.040    8.5203
    2.175    8.3412
    2.310    7.7304
    2.445    7.0563
    2.580    7.0037
    2.715    7.3091
    2.850    6.7930
    2.985    6.5929
    3.120    6.4982
    3.255    6.8773
    3.390    6.5298
    3.525    6.5719
    3.660    6.5403
    3.795    6.6351
    3.930    6.8668
    4.065    6.2665
    4.200    5.9610
    4.335    6.2875
    4.470    6.2349
    4.605    5.9610
    4.740    5.9400
    4.875    5.7504
    5.010    5.5924
    5.145    5.9926
    5.280    5.9294
    5.415    6.1927
    5.550    5.8452
    5.685    5.6977
    5.820    5.9505
    5.955    5.9610
    6.090    5.5187
    6.225    5.7083
    6.360    5.9610
    6.495    5.6977
    6.630    5.5608
    6.765    5.7609
    6.900    5.7083
    7.035    6.1401
    7.170    5.8452
    7.305    6.0242
    7.440    6.0558
    7.575    6.0137
    7.710    6.3402
    7.845    6.0137
    7.980    6.2349
    8.115    6.1611
    8.250    5.8978
    8.385    5.8662
    8.520    6.4244
    8.655    6.4139
    8.790    6.0979
    8.925    6.6772
    9.060    6.7825
    9.195    6.4139
    9.330    6.5929
    9.465    6.4771
    9.600    7.1090
    9.735    7.1617
    9.870    6.8141
   10.005    7.3934
   10.140    7.1722
   10.275    7.0669
   10.410    6.8668
   10.545    6.9616
   10.680    6.8036
   10.815    7.0879
   10.950    6.7720
   11.085    7.0248
   11.220    6.5824
   11.355    6.8668
   11.490    6.0242
   11.625    6.1085
   11.760    6.4139
   11.895    6.2454
   12.030    6.2349
   12.165    5.9821
   12.300    5.9400
   12.435    5.8241
   12.570    5.7504
   12.705    5.9294
   12.840    5.6661
   12.975    5.8768
   13.110    5.8557
   13.245    5.7504
   13.380    5.8662
   13.515    5.6451
   13.650    5.4028
   13.785    5.3291
   13.920    5.4976
   14.055    5.1395
   14.190    5.3712
   14.325    5.6451
   14.460    5.3923
   14.595    5.4450
   14.730    5.4450
   14.865    5.7399
   15.000    5.7504
   15.135    5.5608
   15.270    5.5819
   15.405    5.3397
   15.540    5.4660
   15.675    5.6345
   15.810    5.6451
   15.945    5.3502
   16.080    5.7820
   16.215    5.4871
   16.350    5.6029
   16.485    5.3081
   16.620    5.6556
   16.755    5.5398
   16.890    5.4344
   17.025    5.7188
   17.160    5.6556
   17.295    5.3923
   17.430    5.4660
   17.565    5.6135
   17.700    5.8452
   17.835    5.3923
   17.970    5.5608
   18.105    5.2343
   18.240    5.9716
   18.375    5.4766
   18.510    5.7715
   18.645    5.6661
   18.780    5.8241
   18.915    5.5714
   19.050    5.8452
   19.185    5.6872
   19.320    6.0137
   19.455    5.8557
   19.590    5.5924
   19.725    5.6345
   19.860    5.6872
   19.995    5.5924
   20.130    5.5503
   20.265    5.7399
   20.400    6.2875
   20.535    5.5398
   20.670    5.5924
   20.805    6.0558
   20.940    5.9400
   21.075    6.0453
   21.210    6.1611
   21.345    5.8241
   21.480    6.1190
   21.615    5.9926
   21.750    6.0032
   21.885    6.0874
   22.020    6.0558
   22.155    6.3402
   22.290    6.3718
   22.425    5.9610
   22.560    6.4350
   22.695    6.3402
   22.830    6.1190
   22.965    6.2559
   23.100    6.2454
   23.235    6.2875
   23.370    6.4876
   23.505    6.2033
   23.640    6.0348
   23.775    6.1717
   23.910    5.9821
   24.045    6.2138
   24.180    6.1401
   24.315    6.2349
   24.450    6.0769
   24.585    6.1927
   24.720    6.2243
   24.855    6.1085
   24.990    6.0242
   25.125    5.6661
   25.260    6.2243
   25.395    5.8662
   25.530    5.6029
   25.665    6.0348
   25.800    5.8031
   25.935    5.8978
   26.070    5.8241
   26.205    5.8347
   26.340    5.8452
   26.475    5.6872
   26.610    5.7504
   26.745    5.8662
   26.880    5.5819
   27.015    5.4660
   27.150    5.7504
   27.285    5.4344
   27.420    5.5819
   27.555    5.2765
   27.690    5.4450
   27.825    5.3291
   27.960    5.4344
   28.095    5.2238
   28.230    5.4555
   28.365    6.0242
   28.500    5.2343
   28.635    5.1290
   28.770    5.4766
   28.905    5.3291
   29.040    5.3291
   29.175    5.0342
   29.310    5.3607
   29.445    5.2554
   29.580    5.1080
   29.715    5.1501
   29.850    5.1606
   29.985    5.0658
   30.120    4.9921
   30.255    4.9394
   30.390    5.2343
   30.525    5.0764
   30.660    4.6340
   30.795    5.0764
   30.930    5.2765
   31.065    4.8868
   31.200    4.7183
   31.335    4.7288
   31.470    4.6656
   31.605    4.7077
   31.740    4.6761
   31.875    4.8236
   32.010    4.7183
   32.145    4.7183
   32.280    4.4866
   32.415    4.6656
   32.550    4.7920
   32.685    4.7393
   32.820    4.6024
   32.955    4.8763
   33.090    4.5919
   33.225    4.2654
   33.360    4.5392
   33.495    4.3286
   33.630    4.4971
   33.765    4.4655
   33.900    4.6235
   34.035    4.6656
   34.170    4.6761
   34.305    4.4234
   34.440    4.5814
   34.575    4.4339
   34.710    4.4971
   34.845    4.3497
   34.980    3.9705
   35.115    4.1601
   35.250    4.5392
   35.385    4.2127
   35.520    4.4023
   35.655    4.4760
   35.790    4.1496
   35.925    4.5498
   36.060    4.0969
   36.195    4.1180
   36.330    4.0864
   36.465    4.3918
   36.600    4.4128
   36.735    4.0548
   36.870    4.0232
   37.005    4.3075
   37.140    4.1811
   37.275    4.2549
   37.410    3.9810
   37.545    4.1180
   37.680    3.9600
   37.815    4.1917
   37.950    4.4128
   38.085    3.8441
   38.220    4.3602
   38.355    4.3918
   38.490    4.0548
   38.625    4.3286
   38.760    4.1917
   38.895    3.9705
   39.030    4.4234
   39.165    4.1601
   39.300    3.9494
   39.435    3.9810
   39.570    4.1811
   39.705    4.0864
   39.840    4.2127
   39.975    3.8863
   39.990    3.8652