File: data/MOCOF-1/PXRD/PXRD_KE-220_Co-Ka1_capillary-1mm_5s-deg.xyd
    1.500    8.2504
    1.635    7.2659
    1.770    6.4205
    1.905    5.4040
    2.040    4.9973
    2.175    4.6014
    2.310    4.2590
    2.445    4.2590
    2.580    3.5313
    2.715    3.5848
    2.850    3.6704
    2.985    3.6704
    3.120    3.9486
    3.255    4.1841
    3.390    5.0722
    3.525    6.1102
    3.660    7.5976
    3.795   11.6105
    3.930   19.2937
    4.065   21.7228
    4.200   13.1407
    4.335   16.2975
    4.470   32.2632
    4.605    9.3954
    4.740    8.2290
    4.875    7.5655
    5.010    5.3933
    5.145    3.4136
    5.280    2.4398
    5.415    1.8513
    5.550    1.7442
    5.685    1.7228
    5.820    1.8406
    5.955    1.7871
    6.090    2.4505
    6.225    3.0926
    6.360    6.2600
    6.495    1.4553
    6.630    1.1878
    6.765    1.0808
    6.900    1.1022
    7.035    1.1343
    7.170    1.0594
    7.305    0.9738
    7.440    0.9310
    7.575    0.9096
    7.710    1.2199
    7.845    2.0867
    7.980    2.3007
    8.115    2.5682
    8.250    1.1236
    8.385    0.9417
    8.520    1.0808
    8.655    1.1343
    8.790    1.1664
    8.925    1.4446
    9.060    3.4671
    9.195    1.0273
    9.330    1.0915
    9.465    1.3269
    9.600    1.2520
    9.735    1.3055
    9.870    1.5088
   10.005    1.4767
   10.140    1.5623
   10.275    1.0701
   10.410    0.9524
   10.545    0.9096
   10.680    0.8026
   10.815    0.9524
   10.950    1.3376
   11.085    2.9749
   11.220    0.8989
   11.355    0.9096
   11.490    0.7598
   11.625    0.7812
   11.760    0.9631
   11.895    0.9631
   12.030    2.0546
   12.165    0.9845
   12.300    0.6742
   12.435    0.7277
   12.570    0.7812
   12.705    0.8561
   12.840    1.7764
   12.975    0.7598
   13.110    0.7063
   13.245    0.8133
   13.380    0.9631
   13.515    1.0380
   13.650    2.0546
   13.785    0.6849
   13.920    0.7277
   14.055    0.6849
   14.190    0.7170
   14.325    0.9310
   14.460    0.9203
   14.595    0.7705
   14.730    0.7812
   14.865    0.8882
   15.000    0.8561
   15.135    1.4874
   15.270    0.8026
   15.405    0.7812
   15.540    0.7063
   15.675    0.8240
   15.810    1.0166
   15.945    0.7170
   16.080    0.7384
   16.215    0.6635
   16.350    1.1557
   16.485    1.0166
   16.620    0.7598
   16.755    0.6849
   16.890    0.6421
   17.025    0.6849
   17.160    0.7491
   17.295    0.6635
   17.430    0.6528
   17.565    0.6314
   17.700    0.9203
   17.835    0.5993
   17.970    0.5993
   18.105    0.7063
   18.240    0.6421
   18.375    0.7170
   18.510    0.6421
   18.645    0.7812
   18.780    0.8026
   18.915    0.7812
   19.050    0.7277
   19.185    0.6635
   19.320    0.7170
   19.455    0.7170
   19.590    0.6635
   19.725    0.7919
   19.860    0.9952
   19.995    0.6742
   20.130    0.7491
   20.265    0.6421
   20.400    0.8989
   20.535    0.6421
   20.670    0.6100
   20.805    0.7170
   20.940    0.8240
   21.075    0.6742
   21.210    0.6635
   21.345    0.6849
   21.480    0.6421
   21.615    0.7277
   21.750    0.8026
   21.885    0.7384
   22.020    0.6742
   22.155    0.6421
   22.290    0.6635
   22.425    0.7384
   22.560    0.6421
   22.695    0.6528
   22.830    1.0594
   22.965    0.8240
   23.100    0.7491
   23.235    0.6742
   23.370    0.7277
   23.505    0.7063
   23.640    0.7170
   23.775    1.2199
   23.910    0.7812
   24.045    0.7384
   24.180    0.7705
   24.315    0.8989
   24.450    0.7277
   24.585    0.6314
   24.720    0.7919
   24.855    0.6528
   24.990    0.7277
   25.125    0.9310
   25.260    0.6849
   25.395    0.8989
   25.530    0.9203
   25.665    0.6100
   25.800    0.9203
   25.935    0.9096
   26.070    0.8133
   26.205    0.7598
   26.340    1.2627
   26.475    0.7705
   26.610    0.9738
   26.745    1.2306
   26.880    0.6207
   27.015    0.7063
   27.150    0.8026
   27.285    0.7705
   27.420    0.7491
   27.555    0.7384
   27.690    0.6314
   27.825    0.8026
   27.960    0.7598
   28.095    0.7277
   28.230    0.7491
   28.365    0.6314
   28.500    0.7598
   28.635    0.6849
   28.770    0.7705
   28.905    0.6742
   29.040    0.6100
   29.175    0.5350
   29.310    0.5243
   29.445    0.6635
   29.580    0.6207
   29.715    0.7063
   29.850    0.6849
   29.985    0.6100
   30.120    1.1022
   30.255    0.7491
   30.390    0.7491
   30.525    0.6100
   30.660    0.5136
   30.795    0.5778
   30.930    0.6207
   31.065    0.6635
   31.200    0.5778
   31.335    0.5350
   31.470    0.6100
   31.605    0.7812
   31.740    0.5886
   31.875    0.5457
   32.010    0.4387
   32.145    0.5350
   32.280    0.6849
   32.415    0.6100
   32.550    0.7705
   32.685    0.7063
   32.820    0.6635
   32.955    0.6849
   33.090    0.5993
   33.225    0.6207
   33.360    0.5993
   33.495    0.5136
   33.630    0.4280
   33.765    0.5993
   33.900    0.6314
   34.035    0.5136
   34.170    0.6421
   34.305    0.5671
   34.440    0.4601
   34.575    0.5564
   34.710    0.4494
   34.845    0.6849
   34.980    0.5564
   35.115    0.5993
   35.250    0.5243
   35.385    0.6100
   35.520    0.6207
   35.655    0.5350
   35.790    0.6314
   35.925    0.4387
   36.060    0.5564
   36.195    0.4280
   36.330    0.4494
   36.465    0.5993
   36.600    0.7277
   36.735    0.5564
   36.870    0.5671
   37.005    0.4922
   37.140    0.5886
   37.275    0.5671
   37.410    0.4494
   37.545    0.4601
   37.680    0.4815
   37.815    0.3852
   37.950    0.3638
   38.085    0.4922
   38.220    0.4601
   38.355    0.5029
   38.490    0.4601
   38.625    0.4280
   38.760    0.4173
   38.895    0.3638
   39.030    0.2889
   39.165    0.4173
   39.300    0.3745
   39.435    0.3745
   39.570    0.4494
   39.705    0.4601
   39.840    0.4815
   39.975    0.3531
   39.990    0.3852