File: data/MOCOF-1/PXRD/PXRD_KE-285C_Cu-Ka1_film-3mm_3s-deg.xyd
    1.500   14.4638
    1.635   13.2877
    1.770   11.7957
    1.905   11.2164
    2.040    9.8999
    2.175    9.8999
    2.310    8.6361
    2.445    9.3031
    2.580    8.7414
    2.715    8.8468
    2.850    8.8994
    2.985    9.2329
    3.120    8.8643
    3.255    8.6186
    3.390    8.6712
    3.525    8.9872
    3.660   10.1808
    3.795   11.9361
    3.930   10.2686
    4.065    7.6180
    4.200    8.5308
    4.335    7.4601
    4.470    7.3547
    4.605    8.3026
    4.740    7.7409
    4.875    8.4781
    5.010    8.9170
    5.145    9.3734
    5.280   10.4616
    5.415   11.4271
    5.550   11.0760
    5.685   10.5845
    5.820    9.9526
    5.955    8.4079
    6.090    7.8989
    6.225    7.7409
    6.360    7.1617
    6.495    7.2143
    6.630    7.4776
    6.765    7.3196
    6.900    6.9686
    7.035    6.6526
    7.170    6.1962
    7.305    6.0558
    7.440    6.2138
    7.575    6.0558
    7.710    5.8101
    7.845    6.2489
    7.980    5.6872
    8.115    4.9851
    8.250    5.2308
    8.385    5.3361
    8.520    5.1606
    8.655    4.7393
    8.790    4.5463
    8.925    4.7042
    9.060    4.7920
    9.195    4.5111
    9.330    4.9500
    9.465    5.1957
    9.600    5.2133
    9.735    4.7920
    9.870    4.5989
   10.005    4.7042
   10.140    5.1606
   10.275    5.2484
   10.410    5.2484
   10.545    5.0904
   10.680    4.9324
   10.815    5.4064
   10.950    4.9149
   11.085    5.0904
   11.220    5.2835
   11.355    4.8271
   11.490    5.2133
   11.625    5.3712
   11.760    5.2133
   11.895    4.7744
   12.030    4.9149
   12.165    4.8798
   12.300    4.9500
   12.435    4.8798
   12.570    4.4058
   12.705    4.8095
   12.840    4.4760
   12.975    4.9675
   13.110    4.7920
   13.245    4.2654
   13.380    4.7393
   13.515    4.6867
   13.650    4.4760
   13.785    4.4234
   13.920    4.8798
   14.055    4.9324
   14.190    5.4064
   14.325    5.0377
   14.460    5.0728
   14.595    5.2133
   14.730    5.0202
   14.865    5.2835
   15.000    4.4585
   15.135    4.5111
   15.270    4.5989
   15.405    4.4585
   15.540    4.3883
   15.675    5.1080
   15.810    4.5638
   15.945    4.4585
   16.080    4.5638
   16.215    4.6165
   16.350    4.7042
   16.485    5.2133
   16.620    4.5814
   16.755    4.1776
   16.890    4.3181
   17.025    4.3356
   17.160    4.5463
   17.295    4.3707
   17.430    4.7218
   17.565    4.3883
   17.700    4.8622
   17.835    4.5287
   17.970    4.7920
   18.105    3.9846
   18.240    4.3181
   18.375    4.4936
   18.510    4.7920
   18.645    4.4585
   18.780    4.9324
   18.915    4.2127
   19.050    4.4234
   19.185    4.3181
   19.320    4.4234
   19.455    4.2303
   19.590    4.4058
   19.725    3.9319
   19.860    3.8792
   19.995    3.7564
   20.130    4.1601
   20.265    4.0723
   20.400    4.3707
   20.535    4.1425
   20.670    4.4409
   20.805    3.9319
   20.940    3.7213
   21.075    3.7739
   21.210    4.2830
   21.345    3.9670
   21.480    3.9846
   21.615    4.0372
   21.750    3.9494
   21.885    3.7213
   22.020    3.9846
   22.155    3.7388
   22.290    4.2127
   22.425    3.2824
   22.560    3.8617
   22.695    3.5106
   22.830    3.5633
   22.965    3.7564
   23.100    3.3000
   23.235    3.5808
   23.370    3.7388
   23.505    3.5633
   23.640    3.8266
   23.775    3.7213
   23.910    3.5633
   24.045    3.5808
   24.180    3.3877
   24.315    2.9665
   24.450    3.4931
   24.585    3.7037
   24.720    3.3877
   24.855    3.0542
   24.990    3.1069
   25.125    3.1596
   25.260    3.0191
   25.395    3.2122
   25.530    2.8787
   25.665    3.2473
   25.800    3.0542
   25.935    2.9489
   26.070    2.7558
   26.205    3.2824
   26.340    2.9138
   26.475    3.2122
   26.610    2.8787
   26.745    2.9665
   26.880    3.0367
   27.015    3.0893
   27.150    3.0542
   27.285    2.8787
   27.420    2.6505
   27.555    2.8085
   27.690    2.8436
   27.825    2.9665
   27.960    2.7383
   28.095    2.9489
   28.230    2.8963
   28.365    2.8085
   28.500    2.5979
   28.635    3.0191
   28.770    2.7734
   28.905    2.4399
   29.040    2.5452
   29.175    2.8963
   29.310    3.0542
   29.445    2.4574
   29.580    2.8436
   29.715    2.4223
   29.850    2.8963
   29.985    2.5452
   30.120    2.1590
   30.255    2.2292
   30.390    2.4925
   30.525    2.3170
   30.660    2.4048
   30.795    2.0362
   30.930    2.0888
   31.065    2.3697
   31.200    2.1415
   31.335    1.9308
   31.470    2.0713
   31.605    1.9659
   31.740    1.9659
   31.875    1.8957
   32.010    2.1239
   32.145    2.1064
   32.280    1.8080
   32.415    2.0362
   32.550    2.0011
   32.685    1.9308
   32.820    2.0537
   32.955    1.8431
   33.090    1.9659
   33.225    2.0362
   33.360    1.8957
   33.495    1.7378
   33.630    2.1064
   33.765    1.9133
   33.900    1.8606
   34.035    1.8255
   34.170    1.9484
   34.305    1.6149
   34.440    1.7729
   34.575    2.0537
   34.710    2.0011
   34.845    2.2117
   34.980    1.6324
   35.115    1.6324
   35.250    1.9308
   35.385    1.7553
   35.520    1.5973
   35.655    1.7378
   35.790    1.6324
   35.925    1.7202
   36.060    2.0011
   36.195    1.9659
   36.330    1.9659
   36.465    1.6851
   36.600    1.8606
   36.735    1.7202
   36.870    1.6324
   37.005    1.8431
   37.140    1.7202
   37.275    1.7553
   37.410    1.6149
   37.545    1.8431
   37.680    1.7202
   37.815    1.8080
   37.950    1.8782
   38.085    1.4920
   38.220    1.5271
   38.355    1.5798
   38.490    1.7904
   38.625    1.6675
   38.760    1.6149
   38.895    1.6500
   39.030    1.7202
   39.165    1.5271
   39.300    1.8255
   39.435    1.5798
   39.570    1.5447
   39.705    1.5622
   39.840    1.4042
   39.975    1.6324
   39.990    1.4218