File: data/MOCOF-1/PXRD/PXRD_KE-317_Cu-Ka1_capillary-1mm_3s-deg.xyd
    1.500   10.3739
    1.635    9.4436
    1.770    7.6005
    1.905    7.6180
    2.040    6.4946
    2.175    6.4244
    2.310    5.9505
    2.445    4.8973
    2.580    5.2308
    2.715    5.3361
    2.850    5.2484
    2.985    4.7393
    3.120    5.0553
    3.255    4.7393
    3.390    4.7744
    3.525    4.9851
    3.660    4.2654
    3.795    4.4058
    3.930    4.4760
    4.065    4.3181
    4.200    4.6691
    4.335    4.3005
    4.470    4.7393
    4.605    4.3356
    4.740    4.5989
    4.875    4.6691
    5.010    4.2654
    5.145    4.5814
    5.280    4.4585
    5.415    4.5638
    5.550    4.2478
    5.685    4.5463
    5.820    4.4760
    5.955    4.1776
    6.090    4.5463
    6.225    4.2478
    6.360    4.3005
    6.495    4.3181
    6.630    4.7218
    6.765    4.2303
    6.900    4.8622
    7.035    4.6516
    7.170    4.5989
    7.305    4.6867
    7.440    4.8271
    7.575    5.0728
    7.710    4.5638
    7.845    4.9324
    7.980    4.9851
    8.115    4.7042
    8.250    4.9149
    8.385    4.8447
    8.520    5.3010
    8.655    4.8447
    8.790    5.2659
    8.925    5.5819
    9.060    5.2659
    9.195    5.4590
    9.330    5.3537
    9.465    5.1431
    9.600    5.2659
    9.735    5.4239
    9.870    5.3888
   10.005    5.1957
   10.140    5.2133
   10.275    5.0553
   10.410    5.5643
   10.545    4.9324
   10.680    4.9851
   10.815    5.4590
   10.950    5.7750
   11.085    5.1255
   11.220    4.8973
   11.355    4.4936
   11.490    4.7218
   11.625    4.6340
   11.760    4.6516
   11.895    4.5287
   12.030    4.3883
   12.165    4.5463
   12.300    4.9851
   12.435    4.3181
   12.570    4.1074
   12.705    4.6340
   12.840    4.4585
   12.975    4.1776
   13.110    4.4585
   13.245    4.3181
   13.380    4.4585
   13.515    4.5814
   13.650    4.4234
   13.785    4.6165
   13.920    4.6340
   14.055    4.4058
   14.190    4.4760
   14.325    4.4409
   14.460    4.1952
   14.595    4.4936
   14.730    4.3356
   14.865    4.3707
   15.000    4.2478
   15.135    4.0723
   15.270    4.7393
   15.405    4.5638
   15.540    4.2303
   15.675    4.4760
   15.810    4.4409
   15.945    5.0026
   16.080    4.7569
   16.215    4.6340
   16.350    3.6159
   16.485    4.5463
   16.620    4.0548
   16.755    4.6691
   16.890    4.2654
   17.025    4.2478
   17.160    4.6867
   17.295    4.3181
   17.430    4.3883
   17.565    4.4585
   17.700    4.3532
   17.835    4.1425
   17.970    3.9319
   18.105    4.3356
   18.240    4.5989
   18.375    4.6340
   18.510    4.3707
   18.645    4.4936
   18.780    4.3181
   18.915    4.2654
   19.050    4.4409
   19.185    4.7042
   19.320    4.1250
   19.455    4.1952
   19.590    4.2303
   19.725    4.6340
   19.860    3.9319
   19.995    4.6691
   20.130    4.5638
   20.265    4.4585
   20.400    3.8968
   20.535    3.8617
   20.670    4.2478
   20.805    4.7218
   20.940    4.4760
   21.075    4.2478
   21.210    4.6516
   21.345    4.0899
   21.480    4.4585
   21.615    4.8271
   21.750    4.9149
   21.885    4.8095
   22.020    4.5638
   22.155    4.5814
   22.290    4.7042
   22.425    4.4234
   22.560    4.5989
   22.695    4.4760
   22.830    4.9149
   22.965    4.3707
   23.100    4.2654
   23.235    4.6340
   23.370    4.5638
   23.505    4.7744
   23.640    4.8095
   23.775    4.4409
   23.910    4.1952
   24.045    5.0553
   24.180    4.4409
   24.315    4.8271
   24.450    4.5111
   24.585    4.4585
   24.720    4.1776
   24.855    4.2303
   24.990    4.5287
   25.125    4.5989
   25.260    4.1074
   25.395    4.0372
   25.530    4.7393
   25.665    4.1074
   25.800    4.2830
   25.935    4.0021
   26.070    4.4058
   26.205    4.2654
   26.340    4.2303
   26.475    4.1776
   26.610    4.4058
   26.745    4.0548
   26.880    3.9670
   27.015    4.2830
   27.150    3.8792
   27.285    4.1425
   27.420    4.4058
   27.555    3.9846
   27.690    4.1601
   27.825    3.8441
   27.960    4.1776
   28.095    4.6165
   28.230    3.9319
   28.365    4.3883
   28.500    3.7739
   28.635    4.1250
   28.770    3.9846
   28.905    3.8617
   29.040    4.3005
   29.175    3.8266
   29.310    4.2127
   29.445    3.8792
   29.580    3.7213
   29.715    4.3181
   29.850    3.7388
   29.985    3.5984
   30.120    3.8441
   30.255    4.2127
   30.390    3.5457
   30.525    3.9670
   30.660    3.6159
   30.795    3.5808
   30.930    3.4755
   31.065    3.5282
   31.200    3.5984
   31.335    3.3702
   31.470    3.4229
   31.605    3.6159
   31.740    4.0548
   31.875    3.5984
   32.010    3.8617
   32.145    3.5106
   32.280    3.4580
   32.415    3.3351
   32.550    3.4229
   32.685    3.5633
   32.820    3.2122
   32.955    3.2473
   33.090    3.7213
   33.225    3.4053
   33.360    3.5808
   33.495    3.3526
   33.630    3.3351
   33.765    3.4931
   33.900    3.8090
   34.035    3.1771
   34.170    3.3351
   34.305    3.1420
   34.440    3.3175
   34.575    3.2298
   34.710    3.5808
   34.845    3.3877
   34.980    3.2473
   35.115    3.4229
   35.250    3.2122
   35.385    3.1771
   35.520    3.3175
   35.655    3.3000
   35.790    2.9840
   35.925    2.9489
   36.060    3.6686
   36.195    2.9489
   36.330    3.0191
   36.465    3.1771
   36.600    3.2122
   36.735    3.1771
   36.870    3.0016
   37.005    3.2122
   37.140    3.1947
   37.275    3.2649
   37.410    3.2122
   37.545    3.3526
   37.680    3.4755
   37.815    3.4580
   37.950    3.0893
   38.085    3.2298
   38.220    3.0542
   38.355    2.9489
   38.490    3.3000
   38.625    3.2473
   38.760    3.1420
   38.895    3.0542
   39.030    3.4404
   39.165    3.2473
   39.300    3.0718
   39.435    3.0893
   39.570    3.3175
   39.705    3.5282
   39.840    2.8787
   39.975    3.1245
   39.990    3.1947