File: data/MOCOF-1/PXRD/PXRD_KE-004_Cu-Ka1_capillary-1mm_5s-deg.xyd
    1.500   23.0226
    1.635   22.0642
    1.770   20.0632
    1.905   18.9152
    2.040   16.8615
    2.175   16.3876
    2.310   15.8715
    2.445   15.0290
    2.580   14.9026
    2.715   14.5761
    2.850   14.3549
    2.985   14.4286
    3.120   15.5134
    3.255   17.1143
    3.390   19.1785
    3.525   23.3070
    3.660   23.4755
    3.795   19.4207
    3.930   16.2296
    4.065   13.4597
    4.200   11.7114
    4.335   10.6582
    4.470   10.0053
    4.605    9.4471
    4.740    9.3102
    4.875    9.2259
    5.010    8.1833
    5.145    8.4992
    5.280    7.8884
    5.415    7.8146
    5.550    7.4039
    5.685    7.8041
    5.820    7.2565
    5.955    6.4982
    6.090    7.3618
    6.225    6.9405
    6.360    7.2038
    6.495    6.8878
    6.630    6.1611
    6.765    6.5719
    6.900    6.6667
    7.035    7.0037
    7.170    6.8352
    7.305    6.8457
    7.440    6.6351
    7.575    6.0664
    7.710    6.1717
    7.845    5.9610
    7.980    5.6029
    8.115    5.7083
    8.250    5.5714
    8.385    5.3397
    8.520    5.3502
    8.655    5.2449
    8.790    5.1817
    8.925    5.5292
    9.060    5.2343
    9.195    5.1711
    9.330    4.8236
    9.465    5.0658
    9.600    4.7499
    9.735    4.9394
    9.870    5.0658
   10.005    4.5919
   10.140    4.6235
   10.275    4.7288
   10.410    4.5498
   10.545    4.8552
   10.680    4.4866
   10.815    5.2343
   10.950    4.6445
   11.085    4.6235
   11.220    4.9184
   11.355    4.6551
   11.490    4.9921
   11.625    4.6235
   11.760    4.7288
   11.895    4.7499
   12.030    4.5708
   12.165    4.6235
   12.300    4.2338
   12.435    4.6235
   12.570    4.6867
   12.705    4.8657
   12.840    4.9394
   12.975    4.4655
   13.110    4.5392
   13.245    4.4550
   13.380    4.3286
   13.515    4.5603
   13.650    4.7077
   13.785    4.7183
   13.920    4.8657
   14.055    4.5919
   14.190    4.7815
   14.325    4.8447
   14.460    4.6130
   14.595    4.5919
   14.730    4.5287
   14.865    5.0553
   15.000    4.5708
   15.135    4.3391
   15.270    4.6340
   15.405    4.4339
   15.540    4.4339
   15.675    4.9184
   15.810    4.8657
   15.945    4.8868
   16.080    4.6024
   16.215    4.3813
   16.350    5.0658
   16.485    5.2238
   16.620    5.0026
   16.755    4.8341
   16.890    4.8131
   17.025    4.5708
   17.160    5.3502
   17.295    4.8131
   17.430    4.8447
   17.565    5.1922
   17.700    5.1711
   17.835    5.1501
   17.970    5.2659
   18.105    5.4028
   18.240    5.5608
   18.375    5.5608
   18.510    6.1401
   18.645    5.5398
   18.780    5.6345
   18.915    6.0874
   19.050    6.4982
   19.185    5.6661
   19.320    5.4766
   19.455    5.3291
   19.590    5.8136
   19.725    5.4766
   19.860    5.4450
   19.995    5.3186
   20.130    5.4134
   20.265    5.7609
   20.400    5.9505
   20.535    6.5192
   20.670    5.9716
   20.805    5.2870
   20.940    5.1711
   21.075    5.4976
   21.210    5.1606
   21.345    5.4871
   21.480    5.6977
   21.615    5.6345
   21.750    5.6661
   21.885    5.3923
   22.020    5.7188
   22.155    5.5503
   22.290    5.5398
   22.425    5.6451
   22.560    5.2133
   22.695    5.5292
   22.830    5.6661
   22.965    5.5924
   23.100    5.3923
   23.235    5.6345
   23.370    4.8236
   23.505    5.1080
   23.640    5.4239
   23.775    5.0342
   23.910    5.4344
   24.045    5.2765
   24.180    5.2765
   24.315    4.7709
   24.450    4.8025
   24.585    4.8341
   24.720    4.7709
   24.855    4.7288
   24.990    4.7288
   25.125    4.7709
   25.260    5.2238
   25.395    4.6551
   25.530    4.4128
   25.665    4.4760
   25.800    4.3181
   25.935    4.1811
   26.070    4.3075
   26.205    4.5919
   26.340    3.9810
   26.475    4.1601
   26.610    4.1074
   26.745    4.2443
   26.880    4.2233
   27.015    4.0021
   27.150    4.1074
   27.285    4.0442
   27.420    3.9179
   27.555    4.2338
   27.690    3.8863
   27.825    4.1706
   27.960    3.6651
   28.095    3.7283
   28.230    3.7493
   28.365    3.4966
   28.500    3.8547
   28.635    3.7388
   28.770    3.9179
   28.905    3.5176
   29.040    3.5598
   29.175    3.5914
   29.310    3.1912
   29.445    3.4755
   29.580    3.4123
   29.715    3.5282
   29.850    3.3175
   29.985    3.3175
   30.120    3.4229
   30.255    3.3913
   30.390    3.2754
   30.525    3.2122
   30.660    3.1701
   30.795    2.8225
   30.930    3.0121
   31.065    3.2227
   31.200    2.8647
   31.335    3.0542
   31.470    2.9384
   31.605    2.9805
   31.740    2.8120
   31.875    3.0753
   32.010    2.6540
   32.145    2.8541
   32.280    2.7278
   32.415    2.9068
   32.550    2.6751
   32.685    2.8647
   32.820    2.9384
   32.955    2.6856
   33.090    2.8963
   33.225    2.6119
   33.360    2.6751
   33.495    2.4539
   33.630    2.6856
   33.765    2.3907
   33.900    2.6224
   34.035    2.5487
   34.170    2.4434
   34.305    2.4434
   34.440    2.3065
   34.575    2.3381
   34.710    2.3697
   34.845    2.6119
   34.980    2.1801
   35.115    2.0432
   35.250    1.9905
   35.385    2.1064
   35.520    1.8325
   35.655    1.9484
   35.790    2.0116
   35.925    2.2328
   36.060    2.1380
   36.195    2.0221
   36.330    2.2222
   36.465    2.1590
   36.600    1.9589
   36.735    2.0011
   36.870    1.9905
   37.005    1.9379
   37.140    1.9168
   37.275    2.0642
   37.410    1.9063
   37.545    1.9589
   37.680    1.8641
   37.815    1.8431
   37.950    1.8115
   38.085    1.8009
   38.220    1.8009
   38.355    1.6008
   38.490    1.7799
   38.625    1.8115
   38.760    1.7694
   38.895    1.9063
   39.030    1.7167
   39.165    1.9063
   39.300    1.9589
   39.435    1.9063
   39.570    1.5377
   39.705    1.8115
   39.840    1.8220
   39.975    1.7378
   39.990    1.7694