File: data/MOCOF-1/PXRD/PXRD_KE-097_Cu-Ka1_capillary-1mm_5s-deg.xyd
    1.500    3.3491
    1.635    3.3597
    1.770    3.9284
    1.905    3.5282
    2.040    3.4966
    2.175    3.8441
    2.310    3.7915
    2.445    3.4966
    2.580    3.6019
    2.715    3.3807
    2.850    3.4544
    2.985    4.0021
    3.120    3.9916
    3.255    4.0969
    3.390    4.5498
    3.525    4.4128
    3.660    3.8441
    3.795    4.1180
    3.930    4.0864
    4.065    3.8020
    4.200    3.8231
    4.335    3.6230
    4.470    3.4650
    4.605    3.5914
    4.740    3.7072
    4.875    3.3281
    5.010    3.7177
    5.145    3.6546
    5.280    3.8020
    5.415    3.8547
    5.550    3.6124
    5.685    3.6651
    5.820    3.4860
    5.955    3.5492
    6.090    3.4439
    6.225    3.5914
    6.360    3.5176
    6.495    3.6230
    6.630    3.4544
    6.765    3.6019
    6.900    3.4650
    7.035    3.7177
    7.170    3.2649
    7.305    3.3807
    7.440    3.7809
    7.575    3.8757
    7.710    3.6440
    7.845    3.6124
    7.980    3.8757
    8.115    4.0442
    8.250    3.5492
    8.385    4.1496
    8.520    4.3286
    8.655    4.0442
    8.790    3.9600
    8.925    3.9916
    9.060    3.8968
    9.195    4.0758
    9.330    4.1601
    9.465    4.0864
    9.600    3.7599
    9.735    3.9916
    9.870    4.4234
   10.005    4.0126
   10.140    4.4128
   10.275    4.4655
   10.410    4.2338
   10.545    4.3391
   10.680    4.4866
   10.815    4.9078
   10.950    4.6235
   11.085    4.3602
   11.220    4.9184
   11.355    4.3813
   11.490    5.1080
   11.625    4.9394
   11.760    4.5708
   11.895    4.8657
   12.030    4.8341
   12.165    4.8236
   12.300    5.0869
   12.435    5.4976
   12.570    5.2659
   12.705    5.2975
   12.840    5.3923
   12.975    5.4555
   13.110    5.8978
   13.245    5.6977
   13.380    5.7399
   13.515    6.3928
   13.650    6.4139
   13.785    6.3086
   13.920    6.2349
   14.055    6.4139
   14.190    6.8246
   14.325    7.0458
   14.460    7.1722
   14.595    7.9937
   14.730    7.6883
   14.865    8.0885
   15.000    8.4466
   15.135    8.1517
   15.270    8.5835
   15.405    9.2154
   15.540    9.2575
   15.675    9.1732
   15.810   10.0474
   15.945   10.6477
   16.080   10.1316
   16.215   11.1532
   16.350   11.1848
   16.485   11.6061
   16.620   12.3855
   16.755   12.9226
   16.890   13.2070
   17.025   13.6704
   17.160   14.1864
   17.295   14.9868
   17.430   15.4924
   17.565   15.6925
   17.700   16.1453
   17.835   16.7562
   17.970   17.7146
   18.105   17.6725
   18.240   17.9147
   18.375   18.0200
   18.510   18.5571
   18.645   19.3365
   18.780   19.4523
   18.915   19.0100
   19.050   19.4207
   19.185   19.7262
   19.320   19.5366
   19.455   19.5261
   19.590   19.1153
   19.725   18.7046
   19.860   18.4729
   19.995   18.6730
   20.130   18.3044
   20.265   17.5777
   20.400   17.2617
   20.535   16.7562
   20.670   16.6614
   20.805   16.0821
   20.940   15.3870
   21.075   15.2712
   21.210   14.3128
   21.345   14.1864
   21.480   13.1543
   21.615   13.4597
   21.750   12.4065
   21.885   12.7541
   22.020   11.7641
   22.155   11.8167
   22.290   11.7009
   22.425   11.7957
   22.560   10.8162
   22.695   10.5108
   22.830   10.2580
   22.965    9.6893
   23.100   10.2791
   23.235    9.4681
   23.370    8.9942
   23.505    8.9521
   23.640    9.2575
   23.775    8.6045
   23.910    8.8468
   24.045    7.9831
   24.180    7.8252
   24.315    7.9516
   24.450    7.7725
   24.585    7.8989
   24.720    8.1411
   24.855    7.3618
   24.990    7.1301
   25.125    7.4250
   25.260    7.1195
   25.395    6.7404
   25.530    6.8668
   25.665    6.8141
   25.800    6.8246
   25.935    6.5929
   26.070    6.5403
   26.205    6.2981
   26.340    6.1506
   26.475    6.1190
   26.610    6.0979
   26.745    5.7715
   26.880    6.3402
   27.015    6.1190
   27.150    6.1927
   27.285    5.9610
   27.420    5.7609
   27.555    5.7504
   27.690    5.8136
   27.825    5.7820
   27.960    5.5714
   28.095    5.5714
   28.230    5.6661
   28.365    5.3502
   28.500    5.2133
   28.635    5.6029
   28.770    5.6556
   28.905    5.4028
   29.040    5.4660
   29.175    5.5924
   29.310    5.3081
   29.445    5.1922
   29.580    5.1501
   29.715    5.2449
   29.850    5.0342
   29.985    4.7920
   30.120    5.4134
   30.255    4.8447
   30.390    4.9289
   30.525    4.9394
   30.660    4.7499
   30.795    5.1817
   30.930    4.8657
   31.065    4.9289
   31.200    4.7183
   31.335    4.9816
   31.470    4.9500
   31.605    4.7815
   31.740    4.8025
   31.875    4.7920
   32.010    4.6867
   32.145    4.7183
   32.280    4.6867
   32.415    4.6972
   32.550    4.6235
   32.685    4.6445
   32.820    4.3391
   32.955    4.3707
   33.090    4.8447
   33.225    4.6445
   33.360    4.6972
   33.495    4.5287
   33.630    4.7077
   33.765    4.4550
   33.900    4.5392
   34.035    4.6761
   34.170    4.5182
   34.305    4.4339
   34.440    4.6445
   34.575    4.6972
   34.710    4.4339
   34.845    4.2654
   34.980    4.3181
   35.115    4.1601
   35.250    4.4128
   35.385    4.2970
   35.520    4.0548
   35.655    4.5076
   35.790    4.3286
   35.925    4.2970
   36.060    4.0021
   36.195    4.0758
   36.330    3.8547
   36.465    4.2443
   36.600    3.9284
   36.735    4.0126
   36.870    4.1390
   37.005    3.7704
   37.140    4.0021
   37.275    4.0337
   37.410    3.7704
   37.545    4.0758
   37.680    3.9916
   37.815    3.9810
   37.950    3.8652
   38.085    4.0758
   38.220    3.8652
   38.355    3.9389
   38.490    3.7283
   38.625    3.8441
   38.760    3.9600
   38.895    3.6546
   39.030    3.7388
   39.165    3.7915
   39.300    3.6019
   39.435    3.8757
   39.570    3.5387
   39.705    3.4966
   39.840    3.6756
   39.975    3.6440
   39.990    3.6546