File: data/MOCOF-1/PXRD/PXRD_KE-051_Cu-Ka1_capillary-1mm_5s-deg.xyd
    1.500   24.0126
    1.635   21.5482
    1.770   19.8526
    1.905   17.6725
    2.040   16.9774
    2.175   14.9658
    2.310   14.5550
    2.445   13.8494
    2.580   12.8067
    2.715   12.7962
    2.850   12.2064
    2.985   12.3749
    3.120   12.6593
    3.255   13.1438
    3.390   14.1864
    3.525   15.4608
    3.660   15.7662
    3.795   17.2512
    3.930   26.2559
    4.065    8.6045
    4.200    8.3728
    4.335    7.5092
    4.470    6.9616
    4.605    7.0458
    4.740    6.6772
    4.875    6.8984
    5.010    6.6561
    5.145    7.0353
    5.280    7.1406
    5.415    8.3518
    5.550   11.1216
    5.685    5.8452
    5.820    5.9716
    5.955    5.7715
    6.090    5.9400
    6.225    6.0137
    6.360    5.7399
    6.495    5.6451
    6.630    6.5508
    6.765    7.3091
    6.900    6.1506
    7.035    6.5719
    7.170    6.1717
    7.305    6.2033
    7.440    6.4034
    7.575    6.2033
    7.710    6.6351
    7.845    7.6251
    7.980    6.1611
    8.115    5.7293
    8.250    5.8241
    8.385    6.0558
    8.520    5.8662
    8.655    5.5082
    8.790    5.4766
    8.925    5.5082
    9.060    5.5503
    9.195    5.5608
    9.330    5.6345
    9.465    6.7509
    9.600    9.0047
    9.735    5.4766
    9.870    5.5608
   10.005    5.5082
   10.140    5.4450
   10.275    6.0979
   10.410    5.8452
   10.545    5.4766
   10.680    5.2343
   10.815    6.0348
   10.950    6.4666
   11.085    5.9400
   11.220    5.3818
   11.355    5.2238
   11.490    4.9184
   11.625    5.3818
   11.760    5.6872
   11.895    5.2870
   12.030    5.0132
   12.165    5.2975
   12.300    4.8973
   12.435    4.8341
   12.570    5.1395
   12.705    5.4766
   12.840    4.7709
   12.975    5.0658
   13.110    5.1395
   13.245    5.1817
   13.380    4.7604
   13.515    4.9289
   13.650    5.2027
   13.785    4.7815
   13.920    4.9394
   14.055    5.2554
   14.190    5.1185
   14.325    4.9078
   14.460    5.0448
   14.595    4.8131
   14.730    4.7604
   14.865    4.7183
   15.000    4.7920
   15.135    4.8973
   15.270    5.0026
   15.405    4.9921
   15.540    4.3918
   15.675    4.7077
   15.810    4.5182
   15.945    4.8341
   16.080    5.0026
   16.215    4.9078
   16.350    4.7709
   16.485    4.8025
   16.620    5.1290
   16.755    4.9078
   16.890    4.7709
   17.025    5.2027
   17.160    5.5187
   17.295    4.6130
   17.430    4.9710
   17.565    5.2765
   17.700    4.8973
   17.835    4.8868
   17.970    5.0237
   18.105    4.9394
   18.240    4.9816
   18.375    5.3186
   18.510    4.8657
   18.645    4.8447
   18.780    4.9710
   18.915    5.1290
   19.050    5.2975
   19.185    5.1290
   19.320    4.9394
   19.455    5.1080
   19.590    4.9500
   19.725    4.9605
   19.860    5.0869
   19.995    4.9078
   20.130    5.3818
   20.265    5.4766
   20.400    5.4766
   20.535    5.5503
   20.670    5.3081
   20.805    5.3923
   20.940    5.1922
   21.075    5.2027
   21.210    5.2659
   21.345    5.5398
   21.480    4.8025
   21.615    5.2659
   21.750    5.3397
   21.885    5.2975
   22.020    4.8341
   22.155    4.9816
   22.290    5.0658
   22.425    5.5292
   22.560    5.5924
   22.695    5.6556
   22.830    5.3502
   22.965    5.9716
   23.100    5.1501
   23.235    5.2554
   23.370    5.1922
   23.505    5.2133
   23.640    5.1711
   23.775    5.3502
   23.910    5.2133
   24.045    5.1711
   24.180    5.1290
   24.315    5.1395
   24.450    5.0132
   24.585    5.2133
   24.720    5.2027
   24.855    5.1606
   24.990    5.0237
   25.125    4.9394
   25.260    5.0026
   25.395    4.7920
   25.530    4.6761
   25.665    4.8447
   25.800    4.7393
   25.935    5.2975
   26.070    5.0448
   26.205    4.7709
   26.340    4.5498
   26.475    5.0026
   26.610    4.7393
   26.745    4.5392
   26.880    4.5182
   27.015    4.7393
   27.150    4.8341
   27.285    4.7183
   27.420    4.8341
   27.555    4.6551
   27.690    4.5498
   27.825    4.3391
   27.960    4.2865
   28.095    4.1917
   28.230    4.6867
   28.365    4.6024
   28.500    4.8657
   28.635    4.0548
   28.770    4.6340
   28.905    4.3286
   29.040    4.6235
   29.175    4.2654
   29.310    4.4234
   29.445    4.2759
   29.580    4.3286
   29.715    4.3918
   29.850    4.5076
   29.985    4.4550
   30.120    4.2759
   30.255    4.4971
   30.390    4.2127
   30.525    4.0864
   30.660    4.3918
   30.795    4.2233
   30.930    4.3286
   31.065    4.2865
   31.200    3.9810
   31.335    3.8968
   31.470    3.9284
   31.605    4.1706
   31.740    4.0864
   31.875    3.8125
   32.010    3.6019
   32.145    4.1706
   32.280    3.7915
   32.415    3.8125
   32.550    3.8547
   32.685    3.6756
   32.820    3.8125
   32.955    3.8757
   33.090    3.6862
   33.225    3.5387
   33.360    3.7599
   33.495    3.8125
   33.630    3.5598
   33.765    3.8020
   33.900    3.6440
   34.035    3.7599
   34.170    3.7072
   34.305    3.5808
   34.440    3.3807
   34.575    3.4018
   34.710    3.1069
   34.845    3.2122
   34.980    3.4755
   35.115    3.3175
   35.250    3.3807
   35.385    3.3807
   35.520    3.4439
   35.655    3.5282
   35.790    3.2017
   35.925    3.2543
   36.060    3.2543
   36.195    3.2122
   36.330    3.1280
   36.465    3.2227
   36.600    3.2649
   36.735    3.2227
   36.870    3.1490
   37.005    3.0964
   37.140    3.1174
   37.275    3.2543
   37.410    3.0226
   37.545    3.2333
   37.680    3.2543
   37.815    3.1701
   37.950    3.2227
   38.085    2.9805
   38.220    3.1806
   38.355    3.0964
   38.490    3.1069
   38.625    3.1069
   38.760    2.7804
   38.895    3.2754
   39.030    2.8647
   39.165    3.3597
   39.300    3.1912
   39.435    3.0332
   39.570    2.8752
   39.705    3.0542
   39.840    2.9173
   39.975    2.9384
   39.990    3.1490