File: data/MOCOF-1/PXRD/PXRD_KE-221_Co-Ka1_capillary-1mm_5s-deg.xyd
    1.500    9.1600
    1.635    8.1862
    1.770    7.0305
    1.905    6.2386
    2.040    5.7036
    2.175    5.1792
    2.310    4.6014
    2.445    4.6977
    2.580    4.4837
    2.715    4.0449
    2.850    4.0770
    2.985    4.3553
    3.120    4.7726
    3.255    5.2327
    3.390    6.5811
    3.525    7.7582
    3.660    9.7913
    3.795   13.9647
    3.930   22.9963
    4.065   24.8154
    4.200   16.0942
    4.335   22.6431
    4.470   43.8951
    4.605   10.2087
    4.740    9.5452
    4.875    8.6570
    5.010    6.4526
    5.145    3.9058
    5.280    2.4398
    5.415    2.0867
    5.550    2.0225
    5.685    1.8192
    5.820    1.8192
    5.955    2.0439
    6.090    2.3007
    6.225    4.0877
    6.360    8.6784
    6.495    1.6907
    6.630    1.2306
    6.765    1.1022
    6.900    1.0915
    7.035    1.3376
    7.170    1.0487
    7.305    1.1450
    7.440    1.0380
    7.575    1.2199
    7.710    1.6372
    7.845    2.6645
    7.980    2.1830
    8.115    2.6859
    8.250    1.3162
    8.385    0.9631
    8.520    1.0701
    8.655    1.0166
    8.790    1.1771
    8.925    1.8941
    9.060    4.0663
    9.195    1.1129
    9.330    1.3055
    9.465    1.4660
    9.600    1.3911
    9.735    1.5944
    9.870    1.5516
   10.005    1.6586
   10.140    1.9690
   10.275    1.1557
   10.410    0.8668
   10.545    0.9417
   10.680    0.9524
   10.815    1.1129
   10.950    1.5302
   11.085    3.9165
   11.220    1.1022
   11.355    0.8026
   11.490    0.9310
   11.625    0.8989
   11.760    0.9310
   11.895    1.0808
   12.030    2.8999
   12.165    1.0487
   12.300    0.8026
   12.435    0.9845
   12.570    0.8347
   12.705    1.0808
   12.840    2.1295
   12.975    0.9738
   13.110    0.7063
   13.245    0.7277
   13.380    0.7812
   13.515    1.0594
   13.650    2.5575
   13.785    0.7491
   13.920    0.8561
   14.055    0.8668
   14.190    0.7598
   14.325    1.0915
   14.460    0.8668
   14.595    0.7384
   14.730    0.7705
   14.865    0.9952
   15.000    1.1129
   15.135    1.7228
   15.270    0.8347
   15.405    0.8240
   15.540    0.6956
   15.675    1.0273
   15.810    1.0915
   15.945    0.7705
   16.080    0.7277
   16.215    0.8133
   16.350    1.1664
   16.485    1.0915
   16.620    0.6742
   16.755    0.6314
   16.890    0.6207
   17.025    0.6742
   17.160    0.7491
   17.295    0.6635
   17.430    0.6635
   17.565    0.7277
   17.700    1.0380
   17.835    0.6742
   17.970    0.7063
   18.105    0.7384
   18.240    0.7277
   18.375    0.7491
   18.510    0.6528
   18.645    0.8240
   18.780    1.0380
   18.915    0.6207
   19.050    0.7491
   19.185    0.6956
   19.320    1.0594
   19.455    0.7170
   19.590    0.6421
   19.725    0.8133
   19.860    1.4553
   19.995    0.8240
   20.130    0.7491
   20.265    0.7919
   20.400    0.8668
   20.535    0.6742
   20.670    0.7277
   20.805    0.5993
   20.940    0.8882
   21.075    0.7384
   21.210    0.7491
   21.345    0.7277
   21.480    0.9631
   21.615    0.6528
   21.750    0.7598
   21.885    0.7705
   22.020    0.7919
   22.155    0.7170
   22.290    0.6956
   22.425    0.6849
   22.560    0.8133
   22.695    0.8454
   22.830    1.1878
   22.965    0.7919
   23.100    0.8240
   23.235    0.8989
   23.370    0.7277
   23.505    0.6849
   23.640    0.9524
   23.775    1.3590
   23.910    0.6635
   24.045    0.8454
   24.180    0.9845
   24.315    0.9096
   24.450    0.8775
   24.585    0.7919
   24.720    0.7812
   24.855    0.8454
   24.990    0.8561
   25.125    0.8133
   25.260    0.8240
   25.395    0.8882
   25.530    1.1450
   25.665    0.8240
   25.800    0.7812
   25.935    0.9417
   26.070    0.8240
   26.205    0.9738
   26.340    1.5837
   26.475    0.9631
   26.610    1.0059
   26.745    1.2627
   26.880    0.8668
   27.015    0.7919
   27.150    0.9952
   27.285    0.8561
   27.420    0.6849
   27.555    0.7491
   27.690    0.6956
   27.825    0.7170
   27.960    0.8347
   28.095    0.8133
   28.230    0.7812
   28.365    0.9952
   28.500    0.6528
   28.635    0.8026
   28.770    0.7491
   28.905    0.7812
   29.040    0.8240
   29.175    0.7170
   29.310    0.6421
   29.445    0.8882
   29.580    0.5778
   29.715    0.6421
   29.850    0.7384
   29.985    0.6956
   30.120    1.0915
   30.255    0.6314
   30.390    0.6207
   30.525    0.6528
   30.660    0.6421
   30.795    0.6742
   30.930    0.6849
   31.065    0.6207
   31.200    0.6849
   31.335    0.6314
   31.470    0.7170
   31.605    0.8240
   31.740    0.6100
   31.875    0.5243
   32.010    0.6207
   32.145    0.6314
   32.280    0.6528
   32.415    0.6956
   32.550    0.6635
   32.685    0.7170
   32.820    0.6314
   32.955    0.7277
   33.090    0.6528
   33.225    0.6421
   33.360    0.5029
   33.495    0.5243
   33.630    0.5778
   33.765    0.5886
   33.900    0.7170
   34.035    0.5778
   34.170    0.6528
   34.305    0.6528
   34.440    0.5243
   34.575    0.5993
   34.710    0.6207
   34.845    0.6314
   34.980    0.6528
   35.115    0.5778
   35.250    0.6528
   35.385    0.5029
   35.520    0.7491
   35.655    0.4922
   35.790    0.6207
   35.925    0.5564
   36.060    0.6100
   36.195    0.4387
   36.330    0.5136
   36.465    0.4280
   36.600    0.5671
   36.735    0.5886
   36.870    0.5778
   37.005    0.5029
   37.140    0.4387
   37.275    0.5136
   37.410    0.4280
   37.545    0.5457
   37.680    0.3959
   37.815    0.4922
   37.950    0.4066
   38.085    0.4280
   38.220    0.4173
   38.355    0.3852
   38.490    0.5243
   38.625    0.4173
   38.760    0.4601
   38.895    0.4922
   39.030    0.4066
   39.165    0.4066
   39.300    0.4173
   39.435    0.4708
   39.570    0.5350
   39.705    0.4280
   39.840    0.3959
   39.975    0.4066
   39.990    0.4601