File: data/MOCOF-1/PXRD/PXRD_KE-321C_Cu-Ka1_capillary-1mm_3s-deg.xyd
    1.500   28.4887
    1.665   25.1185
    1.830   19.3962
    1.995   16.1137
    2.160   14.0951
    2.325   12.9542
    2.490   12.0941
    2.655   11.3569
    2.820   11.1813
    2.985   12.0590
    3.150   12.5856
    3.315   15.6047
    3.480   19.8526
    3.645   30.7004
    3.810   70.9321
    3.975   10.4792
    4.140    6.5473
    4.305    6.1611
    4.470    5.9329
    4.635    5.5468
    4.800    6.8282
    4.965    6.9686
    5.130    8.8468
    5.295   12.7611
    5.460   27.2424
    5.625    5.3361
    5.790    5.5468
    5.955    5.4415
    6.120    5.1782
    6.285    5.6170
    6.450    6.3016
    6.615    8.7063
    6.780    6.7755
    6.945    5.1080
    7.110    4.9851
    7.275    5.3537
    7.440    5.0202
    7.605    6.2138
    7.770    7.8287
    7.935    5.4766
    8.100    5.0377
    8.265    4.9149
    8.430    4.6165
    8.595    5.2484
    8.760    5.3537
    8.925    4.7569
    9.090    5.0728
    9.255    5.9505
    9.420    7.4425
    9.585    7.7760
    9.750    5.3537
    9.915    4.8447
   10.080    5.5292
   10.245    6.6526
   10.410    5.4415
   10.575    4.8622
   10.740    4.9149
   10.905    5.8452
   11.070    6.2489
   11.235    4.9851
   11.400    4.9851
   11.565    5.4415
   11.730    6.5824
   11.895    4.7218
   12.060    4.4234
   12.225    4.9500
   12.390    4.6516
   12.555    4.3356
   12.720    4.0197
   12.885    5.5643
   13.050    4.4058
   13.215    4.0197
   13.380    4.6691
   13.545    4.3005
   13.710    3.9319
   13.875    4.6165
   14.040    5.4766
   14.205    4.1425
   14.370    4.0548
   14.535    4.0548
   14.700    4.0372
   14.865    4.2127
   15.030    4.2303
   15.195    4.1425
   15.360    4.1601
   15.525    3.8968
   15.690    4.4585
   15.855    4.1425
   16.020    4.1425
   16.185    4.3532
   16.350    4.2303
   16.515    4.7393
   16.680    4.3181
   16.845    4.1776
   17.010    5.0553
   17.175    3.9846
   17.340    4.1250
   17.505    4.8622
   17.670    4.3532
   17.835    4.2830
   18.000    4.3532
   18.165    4.0723
   18.330    3.7564
   18.495    4.3181
   18.660    4.2478
   18.825    3.9846
   18.990    3.8968
   19.155    4.3005
   19.320    3.8090
   19.485    4.0899
   19.650    4.4234
   19.815    4.3883
   19.980    4.5463
   20.145    4.4409
   20.310    4.7744
   20.475    4.5287
   20.640    4.1074
   20.805    4.4760
   20.970    4.3532
   21.135    4.4760
   21.300    4.7393
   21.465    4.3883
   21.630    3.8968
   21.795    4.8622
   21.960    4.5111
   22.125    4.3356
   22.290    4.6165
   22.455    4.2654
   22.620    5.0904
   22.785    4.9675
   22.950    4.9149
   23.115    4.8271
   23.280    4.2654
   23.445    4.3532
   23.610    3.9319
   23.775    4.0548
   23.940    4.1601
   24.105    4.0899
   24.270    4.4234
   24.435    4.1952
   24.600    4.1601
   24.765    4.1601
   24.930    3.8792
   25.095    4.0899
   25.260    4.4585
   25.425    3.8968
   25.590    4.1250
   25.755    4.8271
   25.920    3.9143
   26.085    3.8792
   26.250    4.2654
   26.415    4.2303
   26.580    4.2830
   26.745    3.7915
   26.910    4.1250
   27.075    4.0723
   27.240    3.7915
   27.405    3.7037
   27.570    3.8441
   27.735    3.8266
   27.900    4.2654
   28.065    3.6686
   28.230    3.6686
   28.395    4.2478
   28.560    3.8441
   28.725    3.9846
   28.890    3.9319
   29.055    3.9846
   29.220    3.9670
   29.385    3.7213
   29.550    4.0021
   29.715    3.9143
   29.880    3.6686
   30.045    3.4931
   30.210    3.5984
   30.375    3.8792
   30.540    3.8441
   30.705    3.4755
   30.870    3.9143
   31.035    3.6159
   31.200    3.5282
   31.365    3.5984
   31.530    3.8090
   31.695    3.9143
   31.860    3.4229
   32.025    3.4580
   32.190    3.9494
   32.355    3.3526
   32.520    3.1245
   32.685    3.4755
   32.850    3.5808
   33.015    3.8617
   33.180    3.4404
   33.345    3.3000
   33.510    2.9665
   33.675    3.3526
   33.840    3.7037
   34.005    3.2824
   34.170    3.3000
   34.335    3.2298
   34.500    3.2649
   34.665    3.2473
   34.830    3.2649
   34.995    3.3526
   35.160    3.2298
   35.325    3.0718
   35.490    3.0542
   35.655    2.9138
   35.820    3.2473
   35.985    2.8963
   36.150    3.2649
   36.315    2.9138
   36.480    2.9138
   36.645    3.1069
   36.810    2.9489
   36.975    3.1069
   37.140    3.4931
   37.305    3.1245
   37.470    2.9314
   37.635    3.1245
   37.800    3.1420
   37.965    3.1420
   38.130    3.2298
   38.295    3.0367
   38.460    3.2298
   38.625    3.2122
   38.790    2.9138
   38.955    3.1596
   39.120    3.2649
   39.285    2.8612
   39.450    3.1420
   39.615    2.8436
   39.780    3.1420
   39.945    2.7734
   40.110    2.7383
   40.275    2.6856
   40.440    3.6159
   40.605    2.9840
   40.770    2.9138
   40.935    3.1069
   41.100    2.9138
   41.265    2.7909
   41.430    3.0718
   41.595    3.4580
   41.760    3.0367
   41.925    2.7383
   42.090    3.2298
   42.255    3.2473
   42.420    2.7734
   42.585    2.8436
   42.750    2.9840
   42.915    3.0893
   43.080    2.9138
   43.245    2.8612
   43.410    3.0191
   43.575    2.7383
   43.740    3.4580
   43.905    3.0191
   44.070    2.7734
   44.235    2.9138
   44.400    3.1596
   44.565    3.1771
   44.730    2.8612
   44.895    3.0542
   45.060    2.8436
   45.225    2.8963
   45.390    2.7734
   45.555    3.0016
   45.720    2.7207
   45.885    2.9314
   46.050    2.7383
   46.215    2.8085
   46.380    2.8612
   46.545    3.2824
   46.710    3.1245
   46.875    3.0016
   47.040    2.9138
   47.205    3.2649
   47.370    2.7734
   47.535    2.8612
   47.700    2.9665
   47.865    2.7032
   48.030    2.6154
   48.195    2.7734
   48.360    2.9489
   48.525    2.7734
   48.690    2.8260
   48.855    2.7734
   49.020    3.1069
   49.185    2.5628
   49.350    2.8787
   49.515    2.6681
   49.680    2.8085
   49.845    2.7207
   49.980    2.3521