File: data/MOCOF-1/PXRD/PXRD_KE-172_Cu-Ka1_capillary-1mm_5s-deg.xyd
    1.500   34.8815
    1.635   35.1027
    1.770   32.1222
    1.905   30.4897
    2.040   28.5519
    2.175   28.2991
    2.310   29.6788
    2.445   30.2264
    2.580   34.2075
    2.715   37.7357
    2.850   44.9921
    2.985   55.7346
    3.120   72.5750
    3.255  102.6646
    3.390  165.4344
    3.525  159.5682
    3.660   67.0458
    3.795   67.8778
    3.930   81.8747
    4.065   83.9179
    4.200   62.6646
    4.335   34.7551
    4.470   20.4423
    4.605   14.5656
    4.740   11.7957
    4.875   10.5740
    5.010    9.8052
    5.145    9.6893
    5.280    9.2680
    5.415    8.8784
    5.550    8.8468
    5.685    8.2359
    5.820    8.2254
    5.955    7.9305
    6.090    8.4781
    6.225    8.0569
    6.360    9.3628
    6.495    9.2891
    6.630   11.0058
    6.765   14.2180
    6.900   20.9479
    7.035   20.4318
    7.170   10.6266
    7.305    9.2786
    7.440    9.4050
    7.575    9.6682
    7.710   10.3107
    7.845   11.6272
    7.980   13.1016
    8.115   13.5650
    8.250   13.5966
    8.385   12.7225
    8.520   10.9637
    8.655   10.1001
    8.790    8.8784
    8.925    8.3834
    9.060    7.9516
    9.195    7.5408
    9.330    7.9516
    9.465    7.3828
    9.600    7.6040
    9.735    7.0774
    9.870    7.8989
   10.005    7.2775
   10.140    7.5408
   10.275    7.7830
   10.410    8.3834
   10.545    8.2570
   10.680    7.8146
   10.815    7.7199
   10.950    7.2038
   11.085    7.1195
   11.220    7.3302
   11.355    7.4460
   11.490    7.6883
   11.625    7.5303
   11.760    7.8989
   11.895    7.6040
   12.030    7.8252
   12.165    8.0990
   12.300    7.7409
   12.435    8.3307
   12.570    8.0042
   12.705    8.0885
   12.840    8.1938
   12.975    8.0463
   13.110    7.8041
   13.245    8.0990
   13.380    7.7936
   13.515    7.4250
   13.650    7.5197
   13.785    7.9937
   13.920    7.6883
   14.055    7.5408
   14.190    6.9826
   14.325    7.1827
   14.460    7.1617
   14.595    7.4566
   14.730    7.4882
   14.865    7.0774
   15.000    7.0563
   15.135    7.0985
   15.270    7.4566
   15.405    7.6777
   15.540    7.2354
   15.675    7.2354
   15.810    7.4776
   15.945    6.8984
   16.080    7.2775
   16.215    7.0669
   16.350    7.1933
   16.485    7.3196
   16.620    6.8141
   16.755    7.1406
   16.890    6.7615
   17.025    6.8246
   17.160    6.8562
   17.295    7.3512
   17.430    7.1406
   17.565    7.0458
   17.700    7.1827
   17.835    6.8246
   17.970    7.4671
   18.105    7.2038
   18.240    7.0985
   18.375    7.4460
   18.510    7.4987
   18.645    7.4566
   18.780    7.4882
   18.915    7.4250
   19.050    7.7199
   19.185    7.6567
   19.320    7.4460
   19.455    7.7514
   19.590    7.6145
   19.725    8.1517
   19.860    7.7620
   19.995    7.8041
   20.130    7.8673
   20.265    8.3623
   20.400    7.6777
   20.535    7.9305
   20.670    7.9621
   20.805    8.0990
   20.940    8.1833
   21.075    8.1411
   21.210    8.0253
   21.345    7.8357
   21.480    8.6572
   21.615    8.0042
   21.750    8.0990
   21.885    7.8462
   22.020    7.9516
   22.155    7.7620
   22.290    8.4044
   22.425    7.5619
   22.560    8.2043
   22.695    8.2254
   22.830    7.8989
   22.965    7.8357
   23.100    7.6672
   23.235    7.4776
   23.370    7.6251
   23.505    8.1517
   23.640    7.6672
   23.775    7.3196
   23.910    7.6461
   24.045    7.4460
   24.180    7.8568
   24.315    7.2459
   24.450    7.3302
   24.585    7.4250
   24.720    7.2459
   24.855    6.9932
   24.990    6.9721
   25.125    7.3723
   25.260    7.6356
   25.395    7.5303
   25.530    6.9300
   25.665    7.0142
   25.800    7.1090
   25.935    7.2459
   26.070    7.2038
   26.205    6.4771
   26.340    6.5824
   26.475    7.1406
   26.610    6.8246
   26.745    6.7930
   26.880    6.9194
   27.015    6.9616
   27.150    6.4771
   27.285    6.8246
   27.420    6.7299
   27.555    6.5192
   27.690    6.7299
   27.825    7.0774
   27.960    6.8457
   28.095    6.7404
   28.230    7.0985
   28.365    7.2249
   28.500    6.8352
   28.635    6.4034
   28.770    6.7299
   28.905    6.5719
   29.040    6.7299
   29.175    6.6035
   29.310    6.1927
   29.445    6.6035
   29.580    6.5192
   29.715    6.8246
   29.850    6.4771
   29.985    6.4350
   30.120    6.2349
   30.255    6.0769
   30.390    6.5087
   30.525    6.1085
   30.660    6.0874
   30.795    6.0137
   30.930    6.4876
   31.065    6.5719
   31.200    6.0453
   31.335    6.1295
   31.470    6.1085
   31.605    6.5613
   31.740    6.7825
   31.875    6.4982
   32.010    6.1190
   32.145    6.1717
   32.280    6.5719
   32.415    5.9189
   32.550    6.4034
   32.685    6.2243
   32.820    5.9716
   32.955    6.2454
   33.090    6.0874
   33.225    6.1611
   33.360    5.9821
   33.495    5.8452
   33.630    6.1506
   33.765    5.6872
   33.900    5.8557
   34.035    6.1717
   34.170    5.6661
   34.305    6.0348
   34.440    5.5292
   34.575    5.8136
   34.710    5.7399
   34.845    6.0558
   34.980    5.8136
   35.115    5.7609
   35.250    5.7293
   35.385    5.7504
   35.520    5.8452
   35.655    5.5503
   35.790    5.7609
   35.925    5.7399
   36.060    5.7293
   36.195    5.6240
   36.330    5.5608
   36.465    5.7504
   36.600    5.4134
   36.735    5.9821
   36.870    5.5714
   37.005    5.6029
   37.140    5.6767
   37.275    5.6240
   37.410    5.7820
   37.545    5.8136
   37.680    5.1606
   37.815    5.5503
   37.950    5.2027
   38.085    5.6661
   38.220    5.2975
   38.355    5.3923
   38.490    5.6872
   38.625    5.7083
   38.760    5.4555
   38.895    5.2554
   39.030    5.7715
   39.165    5.3081
   39.300    5.4660
   39.435    5.0237
   39.570    5.2133
   39.705    5.7504
   39.840    5.7399
   39.975    5.7504
   39.990    5.5819