File: data/MOCOF-1/PXRD/PXRD_KE-177_Cu-Ka1_capillary-1mm_5s-deg.xyd
    1.500   25.0658
    1.635   21.2217
    1.770   17.7251
    1.905   14.7973
    2.040   13.0279
    2.175   11.7114
    2.310   11.0479
    2.445   10.2159
    2.580   10.1527
    2.715   10.3844
    2.850   10.0369
    2.985   10.2054
    3.120   10.6477
    3.255   11.6904
    3.390   13.0911
    3.525   15.4081
    3.660   19.5577
    3.795   29.9842
    3.930   39.7894
    4.065    8.0253
    4.200    6.9826
    4.335    6.8984
    4.470    6.6456
    4.605    6.8984
    4.740    7.4039
    4.875    7.3407
    5.010    7.3302
    5.145    7.5092
    5.280    8.3834
    5.415    9.6261
    5.550   11.7430
    5.685    6.8352
    5.820    6.6983
    5.955    6.8246
    6.090    7.1617
    6.225    6.4244
    6.360    6.4876
    6.495    6.4139
    6.630    6.8773
    6.765    7.2459
    6.900    6.5719
    7.035    6.5719
    7.170    6.3191
    7.305    6.7720
    7.440    6.7193
    7.575    7.4460
    7.710    7.4776
    7.845    8.7520
    7.980    6.8246
    8.115    7.2880
    8.250    6.7088
    8.385    6.8878
    8.520    6.4876
    8.655    6.6983
    8.790    7.2354
    8.925    7.2249
    9.060    7.2249
    9.195    7.2775
    9.330    7.1090
    9.465    8.2780
    9.600    9.6682
    9.735    7.1617
    9.870    7.2565
   10.005    7.5408
   10.140    7.5303
   10.275    7.8568
   10.410    7.7304
   10.545    6.6245
   10.680    7.4776
   10.815    7.2986
   10.950    7.5724
   11.085    8.2254
   11.220    6.6245
   11.355    6.6983
   11.490    7.0353
   11.625    6.7299
   11.760    7.9200
   11.895    6.4244
   12.030    6.7509
   12.165    6.3086
   12.300    6.8457
   12.435    6.6983
   12.570    6.4244
   12.705    6.1295
   12.840    6.1611
   12.975    6.7404
   13.110    6.0769
   13.245    6.2770
   13.380    6.2138
   13.515    6.2981
   13.650    6.3507
   13.785    6.0242
   13.920    5.8031
   14.055    6.3086
   14.190    6.2033
   14.325    6.6140
   14.460    6.0348
   14.595    5.7820
   14.730    6.0558
   14.865    5.9084
   15.000    5.8347
   15.135    5.9926
   15.270    6.2349
   15.405    5.9716
   15.540    6.0348
   15.675    5.6451
   15.810    5.9084
   15.945    6.1401
   16.080    5.8241
   16.215    6.1611
   16.350    5.9189
   16.485    6.0242
   16.620    6.4034
   16.755    5.6240
   16.890    5.9505
   17.025    6.4350
   17.160    6.1822
   17.295    5.6767
   17.430    5.9084
   17.565    6.0137
   17.700    5.8452
   17.835    5.7820
   17.970    5.9400
   18.105    6.1611
   18.240    5.8031
   18.375    6.3718
   18.510    6.1085
   18.645    5.8557
   18.780    6.0242
   18.915    6.4139
   19.050    6.0664
   19.185    6.1401
   19.320    6.2138
   19.455    6.1085
   19.590    6.2875
   19.725    6.2349
   19.860    6.4139
   19.995    5.9189
   20.130    6.4876
   20.265    6.7720
   20.400    6.5508
   20.535    6.4876
   20.670    6.1190
   20.805    6.3928
   20.940    6.4560
   21.075    6.2138
   21.210    6.0453
   21.345    6.2665
   21.480    6.0032
   21.615    6.6772
   21.750    6.5298
   21.885    6.7930
   22.020    6.6140
   22.155    6.3928
   22.290    6.0348
   22.425    6.4139
   22.560    6.7088
   22.695    6.6035
   22.830    6.5613
   22.965    6.9300
   23.100    6.5087
   23.235    6.8036
   23.370    6.6245
   23.505    6.0874
   23.640    6.3296
   23.775    6.5087
   23.910    6.6772
   24.045    6.8246
   24.180    6.1927
   24.315    6.7404
   24.450    6.5824
   24.585    5.9926
   24.720    6.3507
   24.855    5.9189
   24.990    6.3823
   25.125    6.1611
   25.260    6.2454
   25.395    6.4455
   25.530    6.1295
   25.665    5.9400
   25.800    6.4350
   25.935    6.2243
   26.070    6.4982
   26.205    6.4034
   26.340    5.7083
   26.475    5.9400
   26.610    5.7399
   26.745    5.8557
   26.880    5.5398
   27.015    6.1295
   27.150    6.2349
   27.285    5.6872
   27.420    5.7609
   27.555    5.6661
   27.690    5.9294
   27.825    5.8241
   27.960    5.5924
   28.095    5.7504
   28.230    6.0769
   28.365    6.0874
   28.500    5.9926
   28.635    5.6556
   28.770    5.7925
   28.905    5.9294
   29.040    5.8347
   29.175    5.4134
   29.310    5.5924
   29.445    5.5819
   29.580    5.7820
   29.715    5.6451
   29.850    5.2659
   29.985    5.4555
   30.120    5.7083
   30.255    5.8978
   30.390    5.6345
   30.525    5.7083
   30.660    5.7609
   30.795    5.4239
   30.930    5.3607
   31.065    5.3291
   31.200    5.0237
   31.335    5.0974
   31.470    5.6872
   31.605    5.4344
   31.740    5.1501
   31.875    4.9184
   32.010    4.7393
   32.145    4.8341
   32.280    5.1290
   32.415    5.1606
   32.550    4.9605
   32.685    5.1501
   32.820    5.0448
   32.955    5.0869
   33.090    4.9184
   33.225    5.0026
   33.360    4.8236
   33.495    4.6235
   33.630    4.9710
   33.765    4.6445
   33.900    4.7709
   34.035    4.4866
   34.170    4.6024
   34.305    4.6551
   34.440    4.7920
   34.575    5.0132
   34.710    4.5076
   34.845    4.9184
   34.980    4.4444
   35.115    4.8763
   35.250    4.6024
   35.385    4.5392
   35.520    4.3918
   35.655    4.2865
   35.790    4.5814
   35.925    4.9500
   36.060    4.6235
   36.195    4.6761
   36.330    4.4128
   36.465    4.7499
   36.600    4.6972
   36.735    4.7920
   36.870    4.5076
   37.005    4.5076
   37.140    4.5498
   37.275    4.5814
   37.410    4.5392
   37.545    4.8236
   37.680    4.3918
   37.815    4.5287
   37.950    4.5498
   38.085    4.5392
   38.220    4.4339
   38.355    4.6867
   38.490    4.6024
   38.625    4.5076
   38.760    4.4866
   38.895    4.4444
   39.030    4.2443
   39.165    4.4971
   39.300    4.6340
   39.435    4.1390
   39.570    4.4866
   39.705    4.2549
   39.840    4.4971
   39.975    4.5919
   39.990    4.1917