File: data/MOCOF-1/PXRD/PXRD_KE-178-2_Co-Ka1_capillary-1mm_5s-deg.xyd
    1.500   15.7517
    1.635   12.2525
    1.770    9.7913
    1.905    7.6512
    2.040    6.3670
    2.175    5.2755
    2.310    4.5051
    2.445    3.6276
    2.580    3.1140
    2.715    2.6538
    2.850    2.5040
    2.985    2.2579
    3.120    2.1295
    3.255    1.8085
    3.390    1.8513
    3.525    1.7228
    3.660    1.5195
    3.795    1.7014
    3.930    1.7121
    4.065    1.7978
    4.200    2.2579
    4.335    2.7822
    4.470    4.0449
    4.605    1.8406
    4.740    1.6372
    4.875    1.4446
    5.010    1.4446
    5.145    1.4339
    5.280    1.2092
    5.415    1.2306
    5.550    1.1022
    5.685    1.1664
    5.820    1.0701
    5.955    0.9631
    6.090    1.0808
    6.225    1.1022
    6.360    1.3911
    6.495    1.0808
    6.630    1.2306
    6.765    0.9952
    6.900    1.1878
    7.035    1.0273
    7.170    1.2413
    7.305    1.1022
    7.440    1.0701
    7.575    1.1450
    7.710    1.1878
    7.845    1.1236
    7.980    1.0166
    8.115    1.1022
    8.250    0.9738
    8.385    1.1343
    8.520    1.1022
    8.655    1.2199
    8.790    1.1557
    8.925    1.3376
    9.060    1.4660
    9.195    1.1985
    9.330    1.3055
    9.465    1.3055
    9.600    1.2841
    9.735    1.4981
    9.870    1.3483
   10.005    1.3055
   10.140    1.3804
   10.275    1.4339
   10.410    1.4874
   10.545    1.5516
   10.680    1.4660
   10.815    1.5195
   10.950    1.5088
   11.085    1.6693
   11.220    1.5730
   11.355    1.5195
   11.490    1.5088
   11.625    1.5088
   11.760    1.6907
   11.895    1.5516
   12.030    1.4660
   12.165    1.3055
   12.300    1.4874
   12.435    1.4339
   12.570    1.4660
   12.705    1.6586
   12.840    1.5302
   12.975    1.4018
   13.110    1.5302
   13.245    1.2841
   13.380    1.3697
   13.515    1.2734
   13.650    1.2306
   13.785    1.2306
   13.920    1.3055
   14.055    1.1771
   14.190    1.1878
   14.325    1.0808
   14.460    1.1343
   14.595    0.9845
   14.730    1.1664
   14.865    0.8989
   15.000    1.3055
   15.135    1.1878
   15.270    0.9952
   15.405    0.9738
   15.540    1.0487
   15.675    1.0059
   15.810    0.9631
   15.945    0.9203
   16.080    1.1022
   16.215    1.0273
   16.350    1.3055
   16.485    1.2841
   16.620    1.0487
   16.755    1.1236
   16.890    0.9096
   17.025    1.1664
   17.160    0.9631
   17.295    1.0594
   17.430    1.1343
   17.565    0.9096
   17.700    0.8026
   17.835    1.1236
   17.970    1.0487
   18.105    0.9417
   18.240    0.9631
   18.375    0.9631
   18.510    0.9310
   18.645    1.0059
   18.780    1.0808
   18.915    0.9203
   19.050    0.8026
   19.185    0.9417
   19.320    1.1557
   19.455    1.0594
   19.590    1.0166
   19.725    0.9417
   19.860    1.1129
   19.995    0.9845
   20.130    0.9524
   20.265    1.0487
   20.400    1.0380
   20.535    0.9417
   20.670    1.1450
   20.805    1.1343
   20.940    0.9203
   21.075    0.9631
   21.210    0.9738
   21.345    1.0594
   21.480    0.9524
   21.615    0.8882
   21.750    1.1450
   21.885    1.0808
   22.020    0.9952
   22.155    1.0701
   22.290    1.1129
   22.425    1.1985
   22.560    0.9738
   22.695    1.0594
   22.830    1.1236
   22.965    1.0273
   23.100    1.0701
   23.235    1.2413
   23.370    1.1129
   23.505    1.1129
   23.640    0.9417
   23.775    1.1557
   23.910    1.0594
   24.045    1.0594
   24.180    0.9631
   24.315    0.9952
   24.450    1.1450
   24.585    1.0915
   24.720    1.1343
   24.855    1.1450
   24.990    1.0808
   25.125    1.2092
   25.260    1.1557
   25.395    1.1557
   25.530    1.2306
   25.665    1.2306
   25.800    1.1771
   25.935    1.1878
   26.070    1.3162
   26.205    1.1557
   26.340    1.3269
   26.475    0.9952
   26.610    1.0594
   26.745    1.2092
   26.880    1.0166
   27.015    1.2520
   27.150    1.1022
   27.285    1.1129
   27.420    1.2306
   27.555    1.1236
   27.690    1.0701
   27.825    1.0380
   27.960    1.1878
   28.095    1.1878
   28.230    0.9845
   28.365    1.0059
   28.500    0.9952
   28.635    1.1022
   28.770    0.9524
   28.905    1.0059
   29.040    1.1450
   29.175    1.0166
   29.310    1.1450
   29.445    0.9845
   29.580    1.1236
   29.715    1.0166
   29.850    1.1129
   29.985    1.1557
   30.120    0.8775
   30.255    1.0166
   30.390    1.0915
   30.525    0.9524
   30.660    0.8347
   30.795    0.8026
   30.930    0.8561
   31.065    0.9417
   31.200    0.8668
   31.335    0.9096
   31.470    0.8989
   31.605    0.7705
   31.740    0.9203
   31.875    0.9417
   32.010    0.8989
   32.145    0.8882
   32.280    0.8668
   32.415    1.0059
   32.550    0.7384
   32.685    0.7919
   32.820    0.8454
   32.955    0.8882
   33.090    0.7491
   33.225    0.7705
   33.360    0.8882
   33.495    0.8775
   33.630    0.9417
   33.765    0.5886
   33.900    0.6421
   34.035    0.7384
   34.170    0.7598
   34.305    0.7705
   34.440    0.7598
   34.575    0.6528
   34.710    0.5029
   34.845    0.7170
   34.980    0.5564
   35.115    0.7277
   35.250    0.7919
   35.385    0.6635
   35.520    0.5778
   35.655    0.7277
   35.790    0.7170
   35.925    0.5886
   36.060    0.6528
   36.195    0.7705
   36.330    0.5136
   36.465    0.5886
   36.600    0.5671
   36.735    0.7170
   36.870    0.6314
   37.005    0.6207
   37.140    0.5993
   37.275    0.5350
   37.410    0.5778
   37.545    0.5778
   37.680    0.5564
   37.815    0.5350
   37.950    0.6314
   38.085    0.6314
   38.220    0.5778
   38.355    0.5136
   38.490    0.5993
   38.625    0.5136
   38.760    0.5350
   38.895    0.5136
   39.030    0.5029
   39.165    0.5671
   39.300    0.4494
   39.435    0.4815
   39.570    0.5136
   39.705    0.4494
   39.840    0.4922
   39.975    0.4387
   39.990    0.4922