File: data/MOCOF-1/PXRD/PXRD_KE-242-4_Cu-Ka1_capillary-1mm_3s-deg.xyd
    1.500   28.7871
    1.665   27.1371
    1.830   22.7488
    1.995   19.0100
    2.160   17.0792
    2.325   15.9558
    2.490   15.5345
    2.655   14.5866
    2.820   14.4462
    2.985   15.4643
    3.150   17.8164
    3.315   21.3095
    3.480   27.6812
    3.645   44.0934
    3.810  105.8452
    3.975   11.4622
    4.140    7.7234
    4.305    7.2494
    4.470    7.4952
    4.635    7.3021
    4.800    7.7234
    4.965    8.9521
    5.130    9.8648
    5.295   14.2531
    5.460   34.6498
    5.625    6.2138
    5.790    6.2665
    5.955    5.9856
    6.120    6.3542
    6.285    5.8101
    6.450    5.9154
    6.615    8.0569
    6.780    7.4776
    6.945    5.3010
    7.110    5.8978
    7.275    5.7223
    7.440    6.6702
    7.605    7.5127
    7.770   12.9015
    7.935    5.7750
    8.100    5.3361
    8.265    5.5994
    8.430    5.6697
    8.595    5.9329
    8.760    5.9856
    8.925    5.5994
    9.090    5.9681
    9.255    6.1962
    9.420    8.8994
    9.585   10.2510
    9.750    5.2484
    9.915    5.0553
   10.080    5.9505
   10.245    8.1622
   10.410    5.7574
   10.575    5.4590
   10.740    5.1957
   10.905    6.6526
   11.070    7.1441
   11.235    5.1782
   11.400    5.0728
   11.565    6.1085
   11.730    7.5127
   11.895    5.1606
   12.060    5.1606
   12.225    4.9324
   12.390    5.0904
   12.555    4.4936
   12.720    5.1782
   12.885    6.3191
   13.050    5.1957
   13.215    5.0377
   13.380    5.3186
   13.545    5.8452
   13.710    4.4760
   13.875    4.9675
   14.040    6.5298
   14.205    4.6691
   14.370    4.7218
   14.535    5.0377
   14.700    4.8973
   14.865    4.8973
   15.030    4.8447
   15.195    4.4409
   15.360    4.7920
   15.525    4.6165
   15.690    4.7042
   15.855    4.4234
   16.020    4.8622
   16.185    5.2659
   16.350    4.2654
   16.515    5.0728
   16.680    5.5117
   16.845    5.4766
   17.010    6.3016
   17.175    4.8095
   17.340    4.7218
   17.505    5.3712
   17.670    4.8271
   17.835    4.4936
   18.000    5.3361
   18.165    4.6165
   18.330    4.9851
   18.495    4.8095
   18.660    4.6516
   18.825    5.1080
   18.990    5.0026
   19.155    4.7744
   19.320    4.1952
   19.485    4.4585
   19.650    5.2133
   19.815    4.4409
   19.980    4.9500
   20.145    5.2133
   20.310    5.7223
   20.475    5.1957
   20.640    4.7393
   20.805    5.1255
   20.970    4.7744
   21.135    5.0553
   21.300    4.6516
   21.465    4.5638
   21.630    4.8973
   21.795    5.3712
   21.960    5.0377
   22.125    5.0553
   22.290    4.8622
   22.455    4.9149
   22.620    6.0558
   22.785    5.3361
   22.950    6.1787
   23.115    5.3186
   23.280    5.3712
   23.445    4.8271
   23.610    4.9149
   23.775    4.8622
   23.940    5.4766
   24.105    4.9675
   24.270    5.0202
   24.435    4.8622
   24.600    4.7393
   24.765    4.4760
   24.930    4.7042
   25.095    4.7569
   25.260    4.8973
   25.425    4.7393
   25.590    5.0904
   25.755    5.5819
   25.920    4.8798
   26.085    4.7393
   26.250    4.4936
   26.415    4.9675
   26.580    4.3181
   26.745    4.5638
   26.910    4.6691
   27.075    4.8095
   27.240    4.1776
   27.405    4.7393
   27.570    4.4760
   27.735    4.1250
   27.900    4.9324
   28.065    4.7218
   28.230    4.7744
   28.395    5.4239
   28.560    4.8095
   28.725    4.1776
   28.890    4.3883
   29.055    4.2830
   29.220    4.3356
   29.385    4.7393
   29.550    4.4058
   29.715    4.0723
   29.880    4.6516
   30.045    3.9846
   30.210    4.3356
   30.375    4.0723
   30.540    3.8968
   30.705    4.5463
   30.870    4.1074
   31.035    4.0548
   31.200    3.8968
   31.365    4.2654
   31.530    3.9319
   31.695    4.1776
   31.860    3.5457
   32.025    4.3005
   32.190    3.9846
   32.355    3.9319
   32.520    4.0021
   32.685    4.0723
   32.850    4.5111
   33.015    3.8792
   33.180    4.0021
   33.345    4.2478
   33.510    4.0021
   33.675    3.7037
   33.840    4.4760
   34.005    3.9846
   34.170    4.1074
   34.335    3.6862
   34.500    3.7388
   34.665    3.9143
   34.830    3.5808
   34.995    3.8090
   35.160    3.8090
   35.325    3.5808
   35.490    3.6510
   35.655    3.9319
   35.820    3.5984
   35.985    3.7388
   36.150    4.0723
   36.315    4.0723
   36.480    3.5106
   36.645    3.5808
   36.810    3.7213
   36.975    3.5106
   37.140    4.2303
   37.305    3.4755
   37.470    3.7037
   37.635    3.8441
   37.800    3.5282
   37.965    3.5282
   38.130    3.6159
   38.295    3.7915
   38.460    3.7915
   38.625    3.7388
   38.790    3.6159
   38.955    3.5984
   39.120    3.0367
   39.285    3.5457
   39.450    3.7213
   39.615    3.5984
   39.780    3.9143
   39.945    3.6862
   40.110    3.5106
   40.275    3.4404
   40.440    3.6510
   40.605    3.7388
   40.770    3.6686
   40.935    3.4404
   41.100    3.4931
   41.265    3.6686
   41.430    3.4931
   41.595    3.4580
   41.760    3.5106
   41.925    3.6686
   42.090    3.5106
   42.255    3.4931
   42.420    4.0548
   42.585    3.1771
   42.750    3.5106
   42.915    3.4053
   43.080    3.4580
   43.245    3.4755
   43.410    3.7915
   43.575    3.5282
   43.740    3.4580
   43.905    3.1420
   44.070    3.5808
   44.235    3.3175
   44.400    3.3702
   44.565    3.7037
   44.730    3.7388
   44.895    3.2824
   45.060    3.6686
   45.225    3.3877
   45.390    3.5633
   45.555    3.4404
   45.720    3.3000
   45.885    3.5457
   46.050    3.2473
   46.215    3.4931
   46.380    3.5984
   46.545    3.3877
   46.710    3.5457
   46.875    3.2824
   47.040    3.5106
   47.205    3.5633
   47.370    3.4931
   47.535    3.3702
   47.700    3.5984
   47.865    3.6862
   48.030    3.3000
   48.195    3.6510
   48.360    3.3877
   48.525    3.4053
   48.690    3.5633
   48.855    3.5457
   49.020    3.3175
   49.185    3.2824
   49.350    3.4755
   49.515    3.4580
   49.680    2.8436
   49.845    3.3877
   49.980    3.0367