File: data/MOCOF-1/PXRD/PXRD_KE-152_Cu-Ka1_film-3mm_5s-deg.xyd
    1.500    7.4039
    1.635    7.1827
    1.770    6.4771
    1.905    6.1717
    2.040    6.1085
    2.175    5.9610
    2.310    5.4976
    2.445    5.3923
    2.580    5.4028
    2.715    5.2554
    2.850    4.8868
    2.985    5.0342
    3.120    4.9184
    3.255    4.9605
    3.390    4.9921
    3.525    4.8552
    3.660    4.7709
    3.795    4.7077
    3.930    4.5392
    4.065    5.0658
    4.200    4.8657
    4.335    4.7709
    4.470    5.4344
    4.605    5.1922
    4.740    5.2554
    4.875    5.1185
    5.010    5.6556
    5.145    6.0242
    5.280    6.2770
    5.415    6.8141
    5.550    6.8878
    5.685    6.5192
    5.820    6.3718
    5.955    5.5608
    6.090    5.2449
    6.225    5.0237
    6.360    4.8447
    6.495    4.3707
    6.630    4.8973
    6.765    4.2233
    6.900    4.4023
    7.035    4.2654
    7.170    4.2127
    7.305    3.8547
    7.440    3.4544
    7.575    3.7177
    7.710    3.4755
    7.845    3.5598
    7.980    3.1174
    8.115    3.2122
    8.250    3.2649
    8.385    2.9489
    8.520    2.7909
    8.655    2.9384
    8.790    2.7067
    8.925    3.1385
    9.060    2.8647
    9.195    2.9068
    9.330    2.7593
    9.465    2.7383
    9.600    2.6330
    9.735    3.0016
    9.870    3.0437
   10.005    2.7699
   10.140    3.0121
   10.275    2.9595
   10.410    2.7172
   10.545    2.9595
   10.680    3.2017
   10.815    3.2017
   10.950    3.3491
   11.085    3.1701
   11.220    3.0332
   11.355    3.2543
   11.490    3.1280
   11.625    2.9700
   11.760    3.0332
   11.895    3.1385
   12.030    2.9595
   12.165    3.0016
   12.300    3.1385
   12.435    2.8963
   12.570    2.9700
   12.705    2.7383
   12.840    2.7593
   12.975    2.8963
   13.110    2.5698
   13.245    2.7488
   13.380    2.9279
   13.515    2.9910
   13.650    2.6435
   13.785    2.8541
   13.920    2.8120
   14.055    3.1385
   14.190    3.0542
   14.325    3.4439
   14.460    3.1806
   14.595    3.1912
   14.730    3.1069
   14.865    2.8541
   15.000    3.0332
   15.135    2.7909
   15.270    2.8541
   15.405    3.0964
   15.540    2.7383
   15.675    2.7909
   15.810    2.9700
   15.945    2.8120
   16.080    2.6014
   16.215    2.7909
   16.350    2.6119
   16.485    2.8541
   16.620    2.3591
   16.755    2.9068
   16.890    2.7278
   17.025    2.5698
   17.160    2.7909
   17.295    2.6856
   17.430    2.8752
   17.565    2.7278
   17.700    3.0121
   17.835    2.9384
   17.970    3.1701
   18.105    2.8015
   18.240    3.0858
   18.375    2.4750
   18.510    2.7699
   18.645    2.7593
   18.780    2.6856
   18.915    2.9700
   19.050    2.9489
   19.185    2.6330
   19.320    2.7172
   19.455    2.5803
   19.590    2.7593
   19.725    2.6119
   19.860    2.4961
   19.995    2.3802
   20.130    2.2959
   20.265    2.3381
   20.400    2.2959
   20.535    2.1590
   20.670    2.5698
   20.805    2.3591
   20.940    2.4539
   21.075    2.3170
   21.210    2.5592
   21.345    2.0537
   21.480    2.3591
   21.615    2.1590
   21.750    2.3170
   21.885    2.5487
   22.020    2.2012
   22.155    2.2117
   22.290    2.1380
   22.425    2.1801
   22.560    2.5487
   22.695    2.0853
   22.830    2.2749
   22.965    2.1696
   23.100    2.8541
   23.235    2.5066
   23.370    1.9695
   23.505    2.4013
   23.640    2.2749
   23.775    2.0432
   23.910    2.2117
   24.045    2.2854
   24.180    2.0642
   24.315    2.1590
   24.450    2.0116
   24.585    1.8747
   24.720    1.9695
   24.855    1.9168
   24.990    1.8325
   25.125    1.8220
   25.260    1.8747
   25.395    1.8957
   25.530    2.5276
   25.665    2.0116
   25.800    1.7904
   25.935    2.0748
   26.070    1.7378
   26.205    1.7483
   26.340    1.6008
   26.475    1.7272
   26.610    1.8536
   26.745    1.7694
   26.880    1.6640
   27.015    1.7378
   27.150    1.7904
   27.285    1.4850
   27.420    1.4850
   27.555    1.5798
   27.690    1.5798
   27.825    1.5482
   27.960    3.2649
   28.095    1.4218
   28.230    1.4850
   28.365    1.3691
   28.500    1.5798
   28.635    1.4323
   28.770    1.7272
   28.905    2.8331
   29.040    1.5587
   29.175    1.5377
   29.310    1.4429
   29.445    1.4218
   29.580    1.4007
   29.715    1.2428
   29.850    1.3902
   29.985    1.4323
   30.120    1.3586
   30.255    1.2533
   30.390    1.2428
   30.525    1.2428
   30.660    1.1585
   30.795    1.1269
   30.930    1.2428
   31.065    1.1374
   31.200    1.0111
   31.335    1.1585
   31.470    1.2638
   31.605    1.2954
   31.740    2.0748
   31.875    1.4113
   32.010    2.3381
   32.145    2.1064
   32.280    1.1058
   32.415    1.0953
   32.550    0.9268
   32.685    0.9584
   32.820    0.9795
   32.955    0.8425
   33.090    0.9373
   33.225    1.0742
   33.360    0.9584
   33.495    0.9373
   33.630    1.0216
   33.765    1.9168
   33.900    1.2744
   34.035    1.1480
   34.170    0.8847
   34.305    0.9795
   34.440    0.9373
   34.575    1.0005
   34.710    1.0111
   34.845    0.8531
   34.980    0.9479
   35.115    0.8636
   35.250    0.7688
   35.385    0.8847
   35.520    0.9163
   35.655    1.0005
   35.790    1.0216
   35.925    1.0005
   36.060    0.9373
   36.195    0.8847
   36.330    0.8952
   36.465    1.1164
   36.600    0.9268
   36.735    0.9163
   36.870    0.9795
   37.005    0.8741
   37.140    0.8531
   37.275    1.0427
   37.410    0.7899
   37.545    0.8320
   37.680    0.8425
   37.815    0.9795
   37.950    0.9373
   38.085    0.7478
   38.220    0.7056
   38.355    0.9689
   38.490    0.9163
   38.625    1.1480
   38.760    0.8110
   38.895    0.8952
   39.030    0.8847
   39.165    0.7794
   39.300    0.7794
   39.435    0.9373
   39.570    0.8636
   39.705    0.7056
   39.840    0.7478
   39.975    0.9373
   39.990    0.8110