File: data/MOCOF-1/PXRD/PXRD_KE-087_Cu-Ka1_capillary-1mm_5s-deg.xyd
    1.500   10.0053
    1.635    9.1627
    1.770    8.7520
    1.905    8.9521
    2.040    8.6151
    2.175    8.4044
    2.310    8.2359
    2.445    8.4676
    2.580    8.2886
    2.715    8.4676
    2.850    7.8146
    2.985    8.1622
    3.120    8.4150
    3.255    8.0569
    3.390    7.9621
    3.525    8.3202
    3.660    8.2886
    3.795    8.4044
    3.930    8.9942
    4.065    8.9837
    4.200    8.5519
    4.335    8.5413
    4.470    8.4150
    4.605    8.3307
    4.740    8.6467
    4.875    8.3939
    5.010    9.0890
    5.145    8.6151
    5.280    8.4571
    5.415    8.9415
    5.550    8.9626
    5.685    8.2570
    5.820    8.8257
    5.955    8.7941
    6.090    8.3518
    6.225    8.8362
    6.360    8.3939
    6.495    8.6572
    6.630    8.6045
    6.765    9.0890
    6.900    8.7520
    7.035    8.4887
    7.170    8.7204
    7.305    9.0890
    7.440    8.7625
    7.575    8.6572
    7.710    8.6993
    7.845    8.8046
    7.980    9.1311
    8.115    8.9942
    8.250    9.1522
    8.385    9.4260
    8.520    9.6051
    8.655    9.6788
    8.790    9.2364
    8.925    9.6367
    9.060    9.8999
    9.195   10.2686
    9.330    9.9947
    9.465   10.0474
    9.600    9.8789
    9.735   10.5529
    9.870   10.7425
   10.005   10.2791
   10.140   10.3107
   10.275   10.0790
   10.410    9.9947
   10.545   10.0474
   10.680   10.0579
   10.815    9.1943
   10.950    9.8157
   11.085    9.5629
   11.220    9.9105
   11.355    8.7520
   11.490    9.5103
   11.625    9.5103
   11.760    9.0574
   11.895    9.3418
   12.030    9.0995
   12.165    9.1943
   12.300    9.2154
   12.435    8.4781
   12.570    8.6151
   12.705    8.7520
   12.840    8.6361
   12.975    8.5203
   13.110    8.4466
   13.245    8.6572
   13.380    8.5519
   13.515    8.3096
   13.650    8.1201
   13.785    8.3728
   13.920    8.1201
   14.055    8.3307
   14.190    8.2149
   14.325    8.6993
   14.460    8.2149
   14.595    8.3518
   14.730    8.1938
   14.865    8.7836
   15.000    8.1517
   15.135    8.5203
   15.270    8.2254
   15.405    8.5097
   15.540    8.4992
   15.675    8.2886
   15.810    8.2149
   15.945    8.6993
   16.080    8.3518
   16.215    8.8889
   16.350    7.9726
   16.485    8.5203
   16.620    8.7941
   16.755    8.5624
   16.890    8.7098
   17.025    8.3623
   17.160    8.4255
   17.295    8.6151
   17.430    8.8678
   17.565    8.4781
   17.700    8.8784
   17.835    8.5729
   17.970    8.3518
   18.105    8.6572
   18.240    8.5097
   18.375    8.4150
   18.510    8.5308
   18.645    8.7098
   18.780    8.8784
   18.915    8.5835
   19.050    8.4676
   19.185    8.6256
   19.320    9.0363
   19.455    8.9415
   19.590    8.6361
   19.725    8.6256
   19.860    8.6888
   19.995    9.0995
   20.130    8.4150
   20.265    9.4155
   20.400    8.6361
   20.535    9.0679
   20.670    8.7309
   20.805    9.3628
   20.940    8.8362
   21.075    9.0995
   21.210    9.4260
   21.345    9.5524
   21.480    9.0469
   21.615    9.3418
   21.750    8.9837
   21.885    8.9942
   22.020    9.2470
   22.155    9.1206
   22.290    9.1732
   22.425    8.9731
   22.560    9.7104
   22.695    9.5103
   22.830    9.4997
   22.965    9.3418
   23.100    9.0469
   23.235    9.2996
   23.370    9.6788
   23.505    9.6998
   23.640    8.8468
   23.775    8.8362
   23.910    8.7730
   24.045    9.0995
   24.180    8.8362
   24.315    9.2575
   24.450    8.5308
   24.585    9.3944
   24.720    8.9731
   24.855    8.4676
   24.990    8.6572
   25.125    8.7730
   25.260    8.9626
   25.395    8.7414
   25.530    8.7625
   25.665    8.5308
   25.800    8.6572
   25.935    8.6045
   26.070    8.9837
   26.205    8.6361
   26.340    8.6361
   26.475    8.4150
   26.610    8.1938
   26.745    8.6783
   26.880    8.6677
   27.015    8.3096
   27.150    7.8884
   27.285    8.0674
   27.420    8.2780
   27.555    8.1833
   27.690    8.4676
   27.825    8.2254
   27.960    8.1306
   28.095    8.2359
   28.230    7.9726
   28.365    8.1095
   28.500    8.7204
   28.635    8.0569
   28.770    8.4255
   28.905    7.7093
   29.040    8.0147
   29.175    7.5724
   29.310    7.9726
   29.445    8.0990
   29.580    7.4987
   29.715    8.1095
   29.850    7.5724
   29.985    7.6567
   30.120    7.9726
   30.255    7.9410
   30.390    7.5724
   30.525    7.9305
   30.660    7.9410
   30.795    7.4882
   30.930    8.0569
   31.065    7.8252
   31.200    7.2670
   31.335    8.0253
   31.470    7.8252
   31.605    7.9726
   31.740    8.2359
   31.875    8.7204
   32.010    7.4882
   32.145    7.2459
   32.280    7.3723
   32.415    7.3828
   32.550    7.0879
   32.685    7.6777
   32.820    7.6672
   32.955    7.4355
   33.090    7.2775
   33.225    7.1827
   33.360    7.8041
   33.495    7.7620
   33.630    6.9932
   33.765    6.8036
   33.900    7.6777
   34.035    7.5513
   34.170    7.0985
   34.305    6.8668
   34.440    7.0774
   34.575    6.9616
   34.710    7.2775
   34.845    7.0563
   34.980    7.3407
   35.115    7.0669
   35.250    6.9405
   35.385    7.2354
   35.520    6.7930
   35.655    6.9616
   35.790    7.0563
   35.925    6.9194
   36.060    7.1301
   36.195    7.0458
   36.330    6.8246
   36.465    7.1511
   36.600    7.0248
   36.735    7.0037
   36.870    6.8457
   37.005    6.9616
   37.140    6.8036
   37.275    6.7720
   37.410    7.1511
   37.545    7.1301
   37.680    7.1933
   37.815    6.8457
   37.950    7.2143
   38.085    6.9616
   38.220    6.6667
   38.355    6.8141
   38.490    6.9405
   38.625    7.1722
   38.760    6.9194
   38.895    7.0458
   39.030    6.9194
   39.165    6.7720
   39.300    6.9089
   39.435    6.9300
   39.570    6.7404
   39.705    6.9405
   39.840    7.2670
   39.975    6.5929
   39.990    6.9194