File: data/MOCOF-1/PXRD/PXRD_KE-046_Cu-Ka1_capillary-1mm_5s-deg.xyd
    1.500   19.5893
    1.635   18.4939
    1.770   17.8304
    1.905   17.4513
    2.040   17.7146
    2.175   17.7146
    2.310   19.0627
    2.445   21.3375
    2.580   24.2654
    2.715   28.4360
    2.850   32.8067
    2.985   42.7172
    3.120   55.2923
    3.255   77.7357
    3.390  126.7615
    3.525  147.9726
    3.660   64.3602
    3.795   93.7546
    3.930  135.8610
    4.065   34.3233
    4.200   13.0279
    4.335    9.0679
    4.470    7.8989
    4.605    7.7304
    4.740    7.2249
    4.875    7.7620
    5.010    8.0674
    5.145    8.2464
    5.280    9.8157
    5.415   11.8378
    5.550   18.1148
    5.685    5.8978
    5.820    6.1085
    5.955    6.2559
    6.090    6.8457
    6.225    6.8036
    6.360    7.6777
    6.495    8.5519
    6.630   11.2691
    6.765   17.0195
    6.900   24.4128
    7.035   22.7278
    7.170    8.7204
    7.305    8.0463
    7.440    9.0890
    7.575   11.5324
    7.710   18.4623
    7.845   28.0358
    7.980   16.5456
    8.115    8.8152
    8.250    7.0037
    8.385    6.4139
    8.520    6.0137
    8.655    6.2243
    8.790    6.3191
    8.925    6.4139
    9.060    5.9610
    9.195    5.7504
    9.330    6.3191
    9.465    7.6672
    9.600   11.7641
    9.735    5.9610
    9.870    6.1401
   10.005    5.9610
   10.140    6.3296
   10.275    6.9405
   10.410    7.7830
   10.545    6.7615
   10.680    6.0979
   10.815    6.5508
   10.950    6.3612
   11.085    8.0358
   11.220    6.1506
   11.355    7.0248
   11.490    6.7825
   11.625    7.4460
   11.760    9.4155
   11.895    7.9621
   12.030    6.8036
   12.165    6.2138
   12.300    6.2665
   12.435    6.1822
   12.570    6.0769
   12.705    6.0558
   12.840    6.6140
   12.975    7.0985
   13.110    6.4876
   13.245    6.3086
   13.380    5.9716
   13.515    6.3402
   13.650    5.8031
   13.785    5.8873
   13.920    5.5819
   14.055    6.0979
   14.190    5.9294
   14.325    5.9505
   14.460    5.4766
   14.595    5.5398
   14.730    5.7715
   14.865    5.9294
   15.000    5.7925
   15.135    6.0032
   15.270    5.9821
   15.405    6.6983
   15.540    6.0769
   15.675    6.2033
   15.810    5.9610
   15.945    6.0453
   16.080    6.0348
   16.215    6.3086
   16.350    5.4555
   16.485    5.6977
   16.620    5.3607
   16.755    5.8136
   16.890    5.9294
   17.025    6.2665
   17.160    6.0453
   17.295    6.0348
   17.430    6.2033
   17.565    6.7615
   17.700    5.9716
   17.835    6.4455
   17.970    6.2665
   18.105    6.1506
   18.240    6.0348
   18.375    6.3296
   18.510    6.2138
   18.645    5.7188
   18.780    5.9400
   18.915    6.0664
   19.050    5.8031
   19.185    5.7188
   19.320    6.1506
   19.455    6.4350
   19.590    6.8036
   19.725    6.5087
   19.860    6.4771
   19.995    6.8773
   20.130    6.7404
   20.265    6.8773
   20.400    7.0985
   20.535    6.7825
   20.670    6.3191
   20.805    6.6561
   20.940    7.1722
   21.075    7.3828
   21.210    6.9194
   21.345    6.9194
   21.480    6.2875
   21.615    6.6561
   21.750    6.5192
   21.885    6.5192
   22.020    6.8984
   22.155    7.1406
   22.290    7.2775
   22.425    7.3302
   22.560    7.7199
   22.695    7.3828
   22.830    7.0563
   22.965    7.0774
   23.100    6.2875
   23.235    6.8141
   23.370    6.3507
   23.505    6.3086
   23.640    6.2559
   23.775    6.4455
   23.910    6.7825
   24.045    6.6983
   24.180    6.3507
   24.315    7.0037
   24.450    6.4034
   24.585    6.9405
   24.720    6.9300
   24.855    6.4982
   24.990    6.2770
   25.125    6.2033
   25.260    5.7925
   25.395    5.9189
   25.530    5.9610
   25.665    5.9610
   25.800    5.8452
   25.935    5.6872
   26.070    6.3718
   26.205    5.8031
   26.340    5.9926
   26.475    6.1295
   26.610    5.9926
   26.745    5.8031
   26.880    5.5924
   27.015    5.9084
   27.150    6.0558
   27.285    6.2243
   27.420    5.9294
   27.555    5.9610
   27.690    5.7293
   27.825    5.6240
   27.960    5.5187
   28.095    5.8241
   28.230    5.9084
   28.365    5.4344
   28.500    5.7083
   28.635    5.1606
   28.770    5.3923
   28.905    5.6977
   29.040    5.6872
   29.175    5.5608
   29.310    5.8768
   29.445    5.5714
   29.580    5.3607
   29.715    5.6345
   29.850    5.0237
   29.985    5.0764
   30.120    5.7820
   30.255    4.9500
   30.390    5.2659
   30.525    5.3607
   30.660    5.3291
   30.795    5.1606
   30.930    5.6556
   31.065    5.1395
   31.200    5.0658
   31.335    5.3081
   31.470    5.8031
   31.605    5.5924
   31.740    5.0342
   31.875    5.4239
   32.010    5.1606
   32.145    5.3186
   32.280    5.5292
   32.415    5.1395
   32.550    4.7499
   32.685    4.8552
   32.820    5.0237
   32.955    4.9289
   33.090    4.3707
   33.225    5.0237
   33.360    4.7393
   33.495    4.8552
   33.630    5.0764
   33.765    4.8447
   33.900    4.8447
   34.035    4.6972
   34.170    5.0342
   34.305    4.5287
   34.440    4.8025
   34.575    4.5182
   34.710    4.5814
   34.845    4.4550
   34.980    4.6130
   35.115    4.5182
   35.250    4.2759
   35.385    4.4866
   35.520    4.5287
   35.655    4.4339
   35.790    4.3497
   35.925    4.4339
   36.060    4.3813
   36.195    4.5182
   36.330    4.7815
   36.465    4.2549
   36.600    4.7288
   36.735    4.3707
   36.870    4.0126
   37.005    4.4023
   37.140    4.2443
   37.275    4.2233
   37.410    4.0548
   37.545    4.2022
   37.680    4.4550
   37.815    4.2549
   37.950    4.3813
   38.085    4.6445
   38.220    4.1601
   38.355    4.2127
   38.490    4.1496
   38.625    4.0232
   38.760    4.4339
   38.895    4.1496
   39.030    4.4655
   39.165    4.4444
   39.300    4.3602
   39.435    4.3497
   39.570    4.1601
   39.705    4.0337
   39.840    4.1601
   39.975    4.0758
   39.990    4.2549