File: data/MOCOF-1/PXRD/PXRD_KE-328_Cu-Ka1_capillary-1mm_3s-deg.xyd
    1.500    4.4234
    1.665    4.3005
    1.830    4.4409
    1.995    4.5989
    2.160    4.7393
    2.325    5.1606
    2.490    5.7574
    2.655    7.3372
    2.820    9.0925
    2.985   12.1467
    3.150   16.4121
    3.315   26.9616
    3.480   25.3642
    3.645   10.9005
    3.810   13.2526
    3.975   16.5526
    4.140   14.2005
    4.305    6.8282
    4.470    3.7213
    4.635    3.1947
    4.800    2.8963
    4.965    2.7383
    5.130    2.6505
    5.295    2.5101
    5.460    2.5803
    5.625    2.7032
    5.790    2.4223
    5.955    2.3170
    6.120    2.6154
    6.285    2.7032
    6.450    2.7207
    6.615    3.2649
    6.780    4.0197
    6.945    5.7750
    7.110    3.1245
    7.275    2.6505
    7.440    2.6330
    7.605    2.7909
    7.770    2.7734
    7.935    3.2649
    8.100    3.5282
    8.265    3.4580
    8.430    3.3702
    8.595    3.0893
    8.760    2.3872
    8.925    2.3170
    9.090    2.1590
    9.255    2.1064
    9.420    2.3170
    9.585    2.2117
    9.750    2.5101
    9.915    2.1766
   10.080    2.1064
   10.245    2.5101
   10.410    2.5628
   10.575    2.1941
   10.740    2.4925
   10.905    2.1766
   11.070    2.3521
   11.235    2.3521
   11.400    2.1415
   11.565    2.1941
   11.730    2.0713
   11.895    2.2643
   12.060    2.5101
   12.225    2.1590
   12.390    2.3170
   12.555    2.1941
   12.720    2.2643
   12.885    2.4048
   13.050    2.4223
   13.215    2.3346
   13.380    2.1941
   13.545    2.4399
   13.710    2.1239
   13.875    2.6154
   14.040    1.9308
   14.205    2.2643
   14.370    2.3170
   14.535    2.3521
   14.700    2.0537
   14.865    2.1415
   15.030    1.9659
   15.195    2.5628
   15.360    2.0011
   15.525    2.1941
   15.690    2.1064
   15.855    2.2292
   16.020    2.1064
   16.185    2.2643
   16.350    2.1941
   16.515    2.0011
   16.680    2.0713
   16.845    2.3697
   17.010    2.4574
   17.175    2.0362
   17.340    2.1766
   17.505    2.2117
   17.670    2.2117
   17.835    2.2292
   18.000    2.0888
   18.165    2.4750
   18.330    1.8957
   18.495    1.8957
   18.660    2.1766
   18.825    2.2819
   18.990    2.0011
   19.155    2.1941
   19.320    2.3521
   19.485    2.1941
   19.650    2.3346
   19.815    2.5276
   19.980    2.0362
   20.145    2.5101
   20.310    2.2292
   20.475    2.4574
   20.640    2.2643
   20.805    2.2292
   20.970    2.5101
   21.135    2.2819
   21.300    2.1590
   21.465    2.4750
   21.630    2.4750
   21.795    2.4223
   21.960    2.4574
   22.125    2.6154
   22.290    2.4048
   22.455    2.0888
   22.620    2.5101
   22.785    2.5979
   22.950    2.6856
   23.115    2.2468
   23.280    2.1239
   23.445    2.2117
   23.610    2.3872
   23.775    2.3170
   23.940    2.1590
   24.105    2.2117
   24.270    2.2468
   24.435    2.5276
   24.600    2.4399
   24.765    2.3872
   24.930    2.1415
   25.095    2.0888
   25.260    2.2292
   25.425    2.4048
   25.590    2.1064
   25.755    2.1941
   25.920    2.2117
   26.085    2.1239
   26.250    2.0362
   26.415    2.1766
   26.580    2.1064
   26.745    2.1766
   26.910    2.3170
   27.075    2.0186
   27.240    2.0537
   27.405    2.0011
   27.570    1.9484
   27.735    1.9308
   27.900    1.8957
   28.065    1.9659
   28.230    2.2819
   28.395    1.9659
   28.560    1.8606
   28.725    1.7729
   28.890    1.9308
   29.055    1.8606
   29.220    1.9484
   29.385    2.0011
   29.550    2.0186
   29.715    2.0011
   29.880    1.6675
   30.045    1.7378
   30.210    1.8431
   30.375    1.6851
   30.540    1.4394
   30.705    1.8255
   30.870    1.8957
   31.035    1.7553
   31.200    1.9308
   31.365    1.8782
   31.530    1.6149
   31.695    1.7202
   31.860    1.8431
   32.025    1.9484
   32.190    1.6675
   32.355    1.7729
   32.520    1.7553
   32.685    1.7378
   32.850    1.4745
   33.015    1.5622
   33.180    1.5271
   33.345    1.4569
   33.510    1.6324
   33.675    1.4920
   33.840    1.5271
   34.005    1.4569
   34.170    1.5622
   34.335    1.3165
   34.500    1.3165
   34.665    1.3867
   34.830    1.2814
   34.995    1.4218
   35.160    1.4920
   35.325    1.5096
   35.490    1.2989
   35.655    1.3165
   35.820    1.1761
   35.985    1.1936
   36.150    1.1058
   36.315    1.2463
   36.480    1.2638
   36.645    1.0707
   36.810    1.5096
   36.975    1.3165
   37.140    1.2638
   37.305    1.1058
   37.470    1.3516
   37.635    1.1936
   37.800    1.1585
   37.965    1.0883
   38.130    1.2638
   38.295    1.0532
   38.460    1.4394
   38.625    1.1058
   38.790    1.1058
   38.955    1.1936
   39.120    1.3867
   39.285    1.1410
   39.450    1.0005
   39.615    1.1936
   39.780    1.2638
   39.945    1.0356
   40.110    1.2814
   40.275    1.1761
   40.440    1.1761
   40.605    1.1234
   40.770    1.0883
   40.935    0.9830
   41.100    0.9479
   41.265    1.2814
   41.430    1.4042
   41.595    0.9830
   41.760    0.9654
   41.925    1.0883
   42.090    1.2287
   42.255    1.1234
   42.420    1.1761
   42.585    1.0181
   42.750    0.9479
   42.915    1.3516
   43.080    1.1410
   43.245    1.1234
   43.410    1.2814
   43.575    1.2989
   43.740    1.2112
   43.905    1.3516
   44.070    1.2112
   44.235    1.2814
   44.400    1.0883
   44.565    0.8777
   44.730    1.0707
   44.895    0.8777
   45.060    1.0883
   45.225    1.1410
   45.390    1.1234
   45.555    0.9830
   45.720    1.2463
   45.885    0.9654
   46.050    1.3340
   46.215    1.0707
   46.380    1.0532
   46.545    0.9830
   46.710    0.8777
   46.875    1.0005
   47.040    0.8952
   47.205    0.9303
   47.370    0.9654
   47.535    0.7548
   47.700    1.0532
   47.865    1.1058
   48.030    0.7548
   48.195    1.1058
   48.360    0.9479
   48.525    0.9303
   48.690    1.1058
   48.855    1.0181
   49.020    1.0532
   49.185    1.0356
   49.350    0.9303
   49.515    1.3165
   49.680    0.8952
   49.845    1.0181
   49.980    1.0356