File: data/MOCOF-1/PXRD/PXRD_KE-086_Cu-Ka1_capillary-1mm_5s-deg.xyd
    1.500   30.3949
    1.635   28.3096
    1.770   26.8246
    1.905   25.5398
    2.040   24.8657
    2.175   24.7920
    2.310   25.4450
    2.445   26.2875
    2.580   27.8041
    2.715   30.8478
    2.850   35.2817
    2.985   41.7588
    3.120   52.3960
    3.255   68.5413
    3.390  104.2970
    3.525   94.5866
    3.660   89.4471
    3.795  146.4982
    3.930  125.0237
    4.065   42.7488
    4.200   35.1869
    4.335   21.6746
    4.470   14.7130
    4.605   12.8489
    4.740   12.2907
    4.875   13.4387
    5.010   14.0706
    5.145   16.7035
    5.280   20.3265
    5.415   31.5535
    5.550   29.3312
    5.685    9.4997
    5.820    9.7209
    5.955    9.2575
    6.090    9.7209
    6.225    9.6998
    6.360   10.6372
    6.495   11.0690
    6.630   13.2280
    6.765   17.5671
    6.900   15.5977
    7.035   12.8594
    7.170   10.1211
    7.305    9.9315
    7.440   10.7320
    7.575   11.3428
    7.710   15.0395
    7.845   16.2612
    7.980   10.9953
    8.115   11.2691
    8.250   11.8062
    8.385   11.6798
    8.520   11.3323
    8.655   11.1427
    8.790    9.7525
    8.925    9.4787
    9.060    9.7630
    9.195    9.6893
    9.330   12.0484
    9.465   17.8304
    9.600   21.4850
    9.735    9.0153
    9.870    9.2259
   10.005    9.2470
   10.140   10.2159
   10.275   12.7436
   10.410   10.9215
   10.545    9.2364
   10.680    9.1732
   10.815    9.9947
   10.950   11.3533
   11.085   14.0600
   11.220    9.0047
   11.355    8.6888
   11.490    9.5840
   11.625   11.8483
   11.760   13.9337
   11.895    8.8784
   12.030    8.9521
   12.165    8.6151
   12.300    9.5735
   12.435    8.5203
   12.570    8.5835
   12.705    9.3207
   12.840    9.2680
   12.975   12.6066
   13.110    8.5097
   13.245    8.0990
   13.380    8.3834
   13.515   10.0158
   13.650    8.4255
   13.785    8.6888
   13.920    8.8573
   14.055   10.7846
   14.190    9.2470
   14.325    7.9937
   14.460    8.0042
   14.595    7.9726
   14.730    7.6988
   14.865    7.5619
   15.000    8.1095
   15.135    9.0995
   15.270    8.1622
   15.405    8.0253
   15.540    7.7199
   15.675    8.6993
   15.810    8.1517
   15.945    8.1201
   16.080    8.8573
   16.215    8.9415
   16.350    7.5513
   16.485    8.1517
   16.620    9.7946
   16.755    8.4466
   16.890    8.0674
   17.025   10.1106
   17.160    9.0047
   17.295    8.3412
   17.430    7.7936
   17.565    8.2780
   17.700    7.5829
   17.835    7.5303
   17.970    8.6677
   18.105    8.2254
   18.240    8.0885
   18.375    8.6256
   18.510    8.1833
   18.645    7.8252
   18.780    8.2359
   18.915    8.1095
   19.050    8.0569
   19.185    8.1306
   19.320    7.9831
   19.455    8.2359
   19.590    9.1838
   19.725    8.9521
   19.860    8.3518
   19.995    8.4992
   20.130    8.5940
   20.265    9.0047
   20.400   10.9953
   20.535    8.3307
   20.670    8.8257
   20.805    8.4044
   20.940    8.2149
   21.075    8.2886
   21.210    8.4676
   21.345    8.7309
   21.480    8.2464
   21.615    8.3202
   21.750    8.6677
   21.885    9.6367
   22.020    8.6256
   22.155    8.7625
   22.290    9.4892
   22.425    8.9521
   22.560   11.2059
   22.695    9.6472
   22.830    9.8157
   22.965   11.2375
   23.100    8.6572
   23.235    8.7836
   23.370    8.7625
   23.505    8.1306
   23.640    8.5203
   23.775    8.6361
   23.910    9.3839
   24.045    8.2886
   24.180    8.1938
   24.315    8.3728
   24.450    8.3307
   24.585    8.5940
   24.720    8.0147
   24.855    8.1095
   24.990    8.0885
   25.125    7.8673
   25.260    8.1833
   25.395    8.2464
   25.530    8.5203
   25.665    8.1622
   25.800    9.2259
   25.935    8.6783
   26.070    8.1517
   26.205    7.9305
   26.340    8.2570
   26.475    8.3307
   26.610    8.0253
   26.745    7.7409
   26.880    7.6251
   27.015    8.3834
   27.150    8.3728
   27.285    7.6988
   27.420    7.8884
   27.555    7.9516
   27.690    7.5619
   27.825    8.1622
   27.960    7.6777
   28.095    8.2570
   28.230    8.4255
   28.365    8.0779
   28.500    8.4255
   28.635    7.4776
   28.770    7.8989
   28.905    7.5619
   29.040    7.4671
   29.175    7.4987
   29.310    8.6572
   29.445    7.2249
   29.580    7.5935
   29.715    7.8041
   29.850    8.2675
   29.985    7.2880
   30.120    7.6461
   30.255    7.1722
   30.390    7.4355
   30.525    7.3618
   30.660    7.4566
   30.795    7.1722
   30.930    7.1511
   31.065    7.4355
   31.200    7.2775
   31.335    8.0674
   31.470    7.7725
   31.605    7.9410
   31.740    7.7304
   31.875    8.1517
   32.010    7.6251
   32.145    6.8773
   32.280    7.2354
   32.415    7.2459
   32.550    6.8457
   32.685    7.1617
   32.820    7.2249
   32.955    7.1933
   33.090    6.9194
   33.225    6.9826
   33.360    6.7825
   33.495    6.8773
   33.630    7.1301
   33.765    6.9300
   33.900    7.6777
   34.035    7.4566
   34.170    6.8352
   34.305    6.8773
   34.440    6.6983
   34.575    6.8246
   34.710    7.0248
   34.845    6.7404
   34.980    6.7930
   35.115    6.3191
   35.250    7.0142
   35.385    6.6035
   35.520    6.2138
   35.655    6.8773
   35.790    6.6877
   35.925    6.5824
   36.060    7.1827
   36.195    6.3191
   36.330    6.7088
   36.465    6.5192
   36.600    6.4455
   36.735    6.6456
   36.870    6.5192
   37.005    6.9510
   37.140    6.8878
   37.275    6.7299
   37.410    6.2981
   37.545    6.7825
   37.680    6.7825
   37.815    6.7404
   37.950    6.6561
   38.085    6.4876
   38.220    6.7193
   38.355    6.3928
   38.490    6.3718
   38.625    6.5192
   38.760    6.5719
   38.895    6.4771
   39.030    6.2981
   39.165    6.1822
   39.300    6.5087
   39.435    6.5403
   39.570    6.7825
   39.705    6.2875
   39.840    6.6456
   39.975    6.6140
   39.990    6.6456