File: data/MOCOF-1/PXRD/PXRD_KE-049-5_Cu-Ka1_capillary-1mm_35s-deg.xyd
    1.500    4.6160
    1.560    4.7258
    1.620    4.4490
    1.680    4.4128
    1.740    4.2263
    1.800    4.1450
    1.860    4.1556
    1.920    3.9720
    1.980    4.1014
    2.040    3.9058
    2.100    3.9299
    2.160    3.8697
    2.220    3.7900
    2.280    3.8577
    2.340    3.7794
    2.400    3.9163
    2.460    3.7208
    2.520    3.6937
    2.580    3.7508
    2.640    3.6892
    2.700    3.6380
    2.760    3.8622
    2.820    3.7433
    2.880    3.5989
    2.940    3.8441
    3.000    3.7027
    3.060    3.8201
    3.120    3.7283
    3.180    3.8983
    3.240    4.0066
    3.300    4.1375
    3.360    4.4279
    3.420    4.7258
    3.480    4.5272
    3.540    3.8562
    3.600    3.7463
    3.660    3.7027
    3.720    3.7614
    3.780    3.8050
    3.840    3.7689
    3.900    3.9525
    3.960    3.9314
    4.020    4.0111
    4.080    4.0818
    4.140    3.9856
    4.200    3.7388
    4.260    3.6440
    4.320    3.5628
    4.380    3.5252
    4.440    3.5553
    4.500    3.4725
    4.560    3.6260
    4.620    3.4725
    4.680    3.4424
    4.740    3.3431
    4.800    3.4800
    4.860    3.5538
    4.920    3.3988
    4.980    3.4710
    5.040    3.5507
    5.100    3.4845
    5.160    3.5432
    5.220    3.5432
    5.280    3.6305
    5.340    3.6305
    5.400    3.5823
    5.460    3.5477
    5.520    3.5011
    5.580    3.4424
    5.640    3.4710
    5.700    3.4229
    5.760    3.4213
    5.820    3.4138
    5.880    3.4409
    5.940    3.3296
    6.000    3.4996
    6.060    3.4891
    6.120    3.4229
    6.180    3.5372
    6.240    3.4138
    6.300    3.5658
    6.360    3.4244
    6.420    3.4770
    6.480    3.5267
    6.540    3.5959
    6.600    3.4996
    6.660    3.5628
    6.720    3.5944
    6.780    3.7132
    6.840    3.7508
    6.900    3.6350
    6.960    3.5959
    7.020    3.6004
    7.080    3.5929
    7.140    3.5402
    7.200    3.5793
    7.260    3.7042
    7.320    3.5778
    7.380    3.6485
    7.440    3.6124
    7.500    3.5929
    7.560    3.5688
    7.620    3.5748
    7.680    3.5643
    7.740    3.7418
    7.800    3.7253
    7.860    3.7358
    7.920    3.6831
    7.980    3.7870
    8.040    3.7388
    8.100    3.9389
    8.160    3.8170
    8.220    3.9735
    8.280    3.8155
    8.340    3.8456
    8.400    3.8411
    8.460    3.8261
    8.520    3.8246
    8.580    3.8863
    8.640    3.9555
    8.700    3.9825
    8.760    3.8848
    8.820    4.0698
    8.880    3.9028
    8.940    3.8697
    9.000    3.9299
    9.060    4.1315
    9.120    4.0849
    9.180    4.0879
    9.240    3.9795
    9.300    4.0442
    9.360    4.0818
    9.420    3.9600
    9.480    4.1255
    9.540    4.0984
    9.600    4.0006
    9.660    4.1872
    9.720    4.0608
    9.780    3.9555
    9.840    4.0638
    9.900    4.1842
    9.960    4.0864
   10.020    4.2037
   10.080    4.1149
   10.140    4.2729
   10.200    4.2458
   10.260    4.2338
   10.320    4.2714
   10.380    4.2398
   10.440    4.2293
   10.500    4.2489
   10.560    4.4520
   10.620    4.3692
   10.680    4.4775
   10.740    4.4384
   10.800    4.3722
   10.860    4.4309
   10.920    4.4414
   10.980    4.4595
   11.040    4.5302
   11.100    4.4941
   11.160    4.5979
   11.220    4.7183
   11.280    4.5889
   11.340    4.6626
   11.400    4.6205
   11.460    4.7619
   11.520    4.6897
   11.580    4.8988
   11.640    4.8040
   11.700    4.7950
   11.760    4.9124
   11.820    4.9771
   11.880    5.0523
   11.940    5.0914
   12.000    5.0628
   12.060    5.1275
   12.120    4.9620
   12.180    5.1185
   12.240    5.0628
   12.300    5.1320
   12.360    5.1245
   12.420    5.1606
   12.480    5.3938
   12.540    5.4119
   12.600    5.3156
   12.660    5.2704
   12.720    5.3336
   12.780    5.4781
   12.840    5.5052
   12.900    5.3788
   12.960    5.6496
   13.020    5.5834
   13.080    5.8286
   13.140    5.7384
   13.200    5.7880
   13.260    5.6406
   13.320    5.9580
   13.380    5.8738
   13.440    5.9956
   13.500    5.9701
   13.560    5.9490
   13.620    6.2048
   13.680    6.2183
   13.740    6.3868
   13.800    6.2469
   13.860    6.4816
   13.920    6.3688
   13.980    6.4951
   14.040    6.5388
   14.100    6.6366
   14.160    6.7705
   14.220    6.6546
   14.280    6.8141
   14.340    6.8021
   14.400    6.7178
   14.460    7.0097
   14.520    6.8487
   14.580    7.1225
   14.640    7.0879
   14.700    7.2399
   14.760    7.4566
   14.820    7.3407
   14.880    7.3723
   14.940    7.5017
   15.000    7.9094
   15.060    7.7830
   15.120    7.7289
   15.180    7.9245
   15.240    8.0584
   15.300    8.0855
   15.360    8.1742
   15.420    8.3713
   15.480    8.3533
   15.540    8.5940
   15.600    8.5082
   15.660    8.6662
   15.720    8.5835
   15.780    8.8227
   15.840    8.9942
   15.900    9.1341
   15.960    9.0995
   16.020    9.2139
   16.080    9.3297
   16.140    9.6201
   16.200    9.5629
   16.260    9.9406
   16.320    9.8879
   16.380   10.0429
   16.440   10.0639
   16.500   10.3633
   16.560   10.5544
   16.620   10.3784
   16.680   10.7199
   16.740   11.0509
   16.800   10.8448
   16.860   11.2495
   16.920   11.2405
   16.980   11.3744
   17.040   11.5264
   17.100   11.4978
   17.160   11.7039
   17.220   12.0951
   17.280   11.9251
   17.340   12.1884
   17.400   12.1598
   17.460   12.3584
   17.520   12.4697
   17.580   12.6021
   17.640   12.8278
   17.700   12.9737
   17.760   13.1332
   17.820   13.3228
   17.880   13.0896
   17.940   13.2385
   18.000   13.6854
   18.060   13.7426
   18.120   13.9652
   18.180   13.9171
   18.240   13.9382
   18.300   13.9367
   18.360   14.1774
   18.420   14.2060
   18.480   14.3173
   18.540   14.2947
   18.600   14.3880
   18.660   14.7762
   18.720   14.5941
   18.780   14.4663
   18.840   14.5475
   18.900   14.6528
   18.960   15.0079
   19.020   14.7536
   19.080   14.8650
   19.140   14.8454
   19.200   15.0591
   19.260   14.9793