File: data/MOCOF-1/PXRD/PXRD_KE-074_Cu-Ka1_capillary-1mm_5s-deg.xyd
    1.500   20.6846
    1.635   19.9368
    1.770   18.4834
    1.905   17.4197
    2.040   16.9247
    2.175   17.2196
    2.310   17.0616
    2.445   16.4824
    2.580   15.6398
    2.715   14.9763
    2.850   14.4181
    2.985   13.4913
    3.120   13.3860
    3.255   13.6598
    3.390   12.8805
    3.525   10.4371
    3.660    9.8262
    3.795    9.9105
    3.930    9.2786
    4.065    9.6893
    4.200    9.6577
    4.335    9.2259
    4.470    9.3312
    4.605    8.9521
    4.740    8.9731
    4.875   10.4055
    5.010   10.7425
    5.145   10.2896
    5.280    9.5208
    5.415   11.0479
    5.550   10.1211
    5.685    8.7625
    5.820    8.6993
    5.955    8.8046
    6.090    9.1627
    6.225    9.0047
    6.360    9.2680
    6.495   10.1211
    6.630   11.0479
    6.765   12.8278
    6.900   10.4792
    7.035    9.7209
    7.170    9.2154
    7.305    9.3944
    7.440    8.9310
    7.575    9.2154
    7.710    8.2780
    7.845    8.6572
    7.980    8.7204
    8.115    9.3102
    8.250    8.3728
    8.385    9.0469
    8.520    9.3418
    8.655   10.0369
    8.790    8.6151
    8.925    9.1943
    9.060    9.2680
    9.195    9.1627
    9.330    9.3207
    9.465    9.0679
    9.600    9.1206
    9.735    9.1311
    9.870   10.3633
   10.005   11.3112
   10.140   12.2275
   10.275   12.6804
   10.410    9.2154
   10.545    9.4471
   10.680    9.4576
   10.815   10.1843
   10.950   12.6909
   11.085   12.0379
   11.220    9.9842
   11.355    9.2786
   11.490    9.1732
   11.625    8.6677
   11.760    8.6888
   11.895    8.3834
   12.030    8.3623
   12.165    8.1517
   12.300    8.2359
   12.435    8.3307
   12.570    7.9410
   12.705    8.3096
   12.840    8.0569
   12.975    8.1833
   13.110    7.8357
   13.245    8.0042
   13.380    8.2043
   13.515    7.9937
   13.650    7.7409
   13.785    7.6145
   13.920    7.7093
   14.055    7.3091
   14.190    7.9094
   14.325    7.4355
   14.460    7.8568
   14.595    7.3618
   14.730    8.0569
   14.865    7.7725
   15.000    9.6367
   15.135    8.0569
   15.270    7.9621
   15.405    8.0463
   15.540    7.6883
   15.675    8.1095
   15.810    8.4044
   15.945    8.9942
   16.080    8.3202
   16.215    8.1095
   16.350    8.4044
   16.485    8.5519
   16.620    8.1517
   16.755    8.1727
   16.890    7.9200
   17.025    8.1095
   17.160    8.1727
   17.295    8.3518
   17.430    7.9726
   17.565    7.6777
   17.700    8.0253
   17.835    8.1201
   17.970    9.2680
   18.105   11.0163
   18.240   10.1948
   18.375    8.1622
   18.510    7.8989
   18.645    8.0885
   18.780    8.0147
   18.915    8.7625
   19.050    8.3412
   19.185    8.1095
   19.320    7.6883
   19.455    8.6993
   19.590    8.3202
   19.725    8.2570
   19.860    8.0990
   19.995    7.7830
   20.130    8.3307
   20.265    8.2675
   20.400    8.2254
   20.535    8.3307
   20.670    8.2464
   20.805    8.2570
   20.940    8.2043
   21.075    8.2254
   21.210    8.2570
   21.345    8.6572
   21.480    8.6783
   21.615    8.4571
   21.750    7.8884
   21.885    7.9094
   22.020    8.6572
   22.155    8.5835
   22.290    8.3412
   22.425    8.4676
   22.560    8.5835
   22.695    9.0258
   22.830    8.8257
   22.965    8.6993
   23.100    8.9310
   23.235    8.7625
   23.370    8.5940
   23.505    7.9621
   23.640    8.3834
   23.775    8.1833
   23.910    8.5308
   24.045    8.2675
   24.180    7.9726
   24.315    8.1833
   24.450    8.4992
   24.585    8.2043
   24.720    8.2254
   24.855    7.9937
   24.990    9.2575
   25.125    8.5729
   25.260    7.7093
   25.395    8.3096
   25.530    7.8673
   25.665    7.7725
   25.800    7.8146
   25.935    7.8462
   26.070    7.7514
   26.205    8.0569
   26.340    8.0253
   26.475    8.3096
   26.610    8.3728
   26.745    8.5203
   26.880    7.7725
   27.015    7.5619
   27.150    7.8146
   27.285    7.8778
   27.420    7.2986
   27.555    7.1090
   27.690    7.8357
   27.825    7.6988
   27.960    8.2149
   28.095    8.3096
   28.230    8.1095
   28.365    7.1722
   28.500    7.4355
   28.635    7.1722
   28.770    7.4987
   28.905    7.5513
   29.040    7.5303
   29.175    6.9721
   29.310    7.1090
   29.445    7.2143
   29.580    7.2670
   29.715    7.6672
   29.850    7.3407
   29.985    7.3302
   30.120    6.9405
   30.255    7.2143
   30.390    6.8246
   30.525    7.0353
   30.660    6.8457
   30.795    6.6983
   30.930    6.8773
   31.065    7.0563
   31.200    6.8246
   31.335    6.9300
   31.470    6.5508
   31.605    6.8773
   31.740    7.4776
   31.875    7.0142
   32.010    7.5619
   32.145    8.2043
   32.280    6.5824
   32.415    6.5929
   32.550    6.5192
   32.685    6.7404
   32.820    6.5719
   32.955    6.6983
   33.090    6.7825
   33.225    6.4139
   33.360    6.1506
   33.495    6.3823
   33.630    6.4771
   33.765    6.8036
   33.900    6.7615
   34.035    6.3402
   34.170    6.2981
   34.305    5.9716
   34.440    6.5403
   34.575    6.4350
   34.710    6.3507
   34.845    6.1611
   34.980    6.6667
   35.115    6.3507
   35.250    6.8141
   35.385    6.2349
   35.520    6.6140
   35.655    6.3718
   35.790    6.4771
   35.925    6.5403
   36.060    6.4244
   36.195    6.1822
   36.330    6.2981
   36.465    6.1190
   36.600    6.1717
   36.735    6.3507
   36.870    6.2033
   37.005    6.3612
   37.140    6.2665
   37.275    6.0769
   37.410    6.6772
   37.545    6.1822
   37.680    5.9716
   37.815    5.8241
   37.950    6.2981
   38.085    5.9716
   38.220    6.1190
   38.355    6.3507
   38.490    6.2875
   38.625    6.3928
   38.760    6.1717
   38.895    6.0348
   39.030    6.4771
   39.165    6.1611
   39.300    6.0874
   39.435    6.0664
   39.570    5.7188
   39.705    6.2875
   39.840    6.1822
   39.975    6.0137
   39.990    5.9610