File: data/MOCOF-1/PXRD/PXRD_KE-310_Cu-Ka1_capillary-1mm_60s-deg.xyd
    1.500    5.8110
    1.635    5.4652
    1.770    5.0334
    1.905    4.7077
    2.040    4.4383
    2.175    4.2461
    2.310    3.9942
    2.445    3.7827
    2.580    3.7186
    2.715    3.5975
    2.850    3.5852
    2.985    3.8740
    3.120    4.3962
    3.255    5.6100
    3.390    8.1596
    3.525   13.1710
    3.660   24.6779
    3.795   67.2415
    3.930   10.9294
    4.065    3.1912
    4.200    2.9085
    4.335    2.6558
    4.470    2.6751
    4.605    2.6207
    4.740    2.5715
    4.875    2.6891
    5.010    2.9164
    5.145    3.9064
    5.280    6.4894
    5.415   17.6979
    5.550    4.7516
    5.685    2.5110
    5.820    2.4179
    5.955    2.4074
    6.090    2.3144
    6.225    2.3626
    6.360    2.4425
    6.495    2.8015
    6.630    4.3391
    6.765    4.2145
    6.900    2.2819
    7.035    2.2670
    7.170    2.1906
    7.305    2.2600
    7.440    2.3433
    7.575    2.8550
    7.710    5.5152
    7.845    2.8568
    7.980    2.1827
    8.115    2.2407
    8.250    2.1169
    8.385    2.1661
    8.520    2.2310
    8.655    2.6830
    8.790    2.0792
    8.925    2.0879
    9.060    2.1687
    9.195    2.1941
    9.330    2.7672
    9.465    6.6491
    9.600    3.8547
    9.735    2.1880
    9.870    2.0923
   10.005    2.1327
   10.140    2.3670
   10.275    4.7622
   10.410    2.2196
   10.545    2.0283
   10.680    2.0432
   10.815    2.1511
   10.950    3.4720
   11.085    2.8339
   11.220    2.0230
   11.355    2.0388
   11.490    2.1213
   11.625    3.5141
   11.760    2.7962
   11.895    2.0274
   12.030    2.0090
   12.165    2.0081
   12.300    2.4978
   12.435    2.0318
   12.570    2.0037
   12.705    1.9861
   12.840    2.4311
   12.975    3.2008
   13.110    1.9958
   13.245    2.0142
   13.380    2.0511
   13.515    2.9103
   13.650    1.9598
   13.785    1.9888
   13.920    2.0072
   14.055    3.5703
   14.190    1.9949
   14.325    1.9107
   14.460    1.8826
   14.595    1.9186
   14.730    1.9150
   14.865    1.9589
   15.000    1.9923
   15.135    2.3881
   15.270    1.9677
   15.405    1.8229
   15.540    1.9098
   15.675    1.8922
   15.810    1.9300
   15.945    1.9668
   16.080    2.1880
   16.215    2.0002
   16.350    1.9344
   16.485    2.0125
   16.620    2.2968
   16.755    1.9528
   16.890    2.0590
   17.025    3.1262
   17.160    2.0827
   17.295    1.9914
   17.430    2.0230
   17.565    2.0695
   17.700    2.0142
   17.835    2.0923
   17.970    2.1818
   18.105    2.0002
   18.240    2.0160
   18.375    2.3381
   18.510    1.9879
   18.645    1.9580
   18.780    2.1740
   18.915    1.9326
   19.050    1.9115
   19.185    2.0590
   19.320    1.9730
   19.455    2.0379
   19.590    2.4320
   19.725    1.9800
   19.860    2.0335
   19.995    2.0897
   20.130    2.0230
   20.265    2.1845
   20.400    2.9279
   20.535    2.0888
   20.670    1.9940
   20.805    2.0046
   20.940    2.0247
   21.075    2.1099
   21.210    2.0493
   21.345    2.0555
   21.480    2.0107
   21.615    2.0599
   21.750    2.1511
   21.885    2.3802
   22.020    2.0256
   22.155    2.2687
   22.290    2.1564
   22.425    2.1336
   22.560    3.1332
   22.695    2.1239
   22.830    2.5979
   22.965    2.8217
   23.100    2.0783
   23.235    2.4232
   23.370    2.0818
   23.505    2.0853
   23.640    2.1213
   23.775    2.0432
   23.910    2.3565
   24.045    2.0528
   24.180    2.0844
   24.315    2.0388
   24.450    2.0642
   24.585    2.1116
   24.720    1.9624
   24.855    2.0923
   24.990    2.0528
   25.125    2.0721
   25.260    2.0757
   25.395    2.0397
   25.530    2.0309
   25.665    1.9440
   25.800    2.7058
   25.935    2.0283
   26.070    2.0607
   26.205    2.0362
   26.340    1.9932
   26.475    2.1064
   26.610    1.9080
   26.745    1.8922
   26.880    1.9449
   27.015    2.2784
   27.150    1.8975
   27.285    1.9396
   27.420    1.8773
   27.555    2.0818
   27.690    1.9124
   27.825    1.9580
   27.960    1.9177
   28.095    2.0247
   28.230    2.0862
   28.365    1.9861
   28.500    2.0555
   28.635    1.7825
   28.770    1.8747
   28.905    1.8132
   29.040    1.8738
   29.175    1.8747
   29.310    2.0247
   29.445    1.8238
   29.580    1.8009
   29.715    1.8088
   29.850    1.8448
   29.985    1.8159
   30.120    1.8273
   30.255    1.8053
   30.390    1.8150
   30.525    1.8071
   30.660    1.8492
   30.795    1.7079
   30.930    1.7360
   31.065    1.7176
   31.200    1.6956
   31.335    1.7413
   31.470    1.7035
   31.605    1.6711
   31.740    1.6877
   31.875    1.7606
   32.010    1.6658
   32.145    1.7184
   32.280    1.6798
   32.415    1.6772
   32.550    1.5798
   32.685    1.6561
   32.820    1.6544
   32.955    1.7044
   33.090    1.4455
   33.225    1.5043
   33.360    1.5368
   33.495    1.4920
   33.630    1.5377
   33.765    1.5578
   33.900    1.6886
   34.035    1.5280
   34.170    1.5078
   34.305    1.4350
   34.440    1.4622
   34.575    1.5271
   34.710    1.4692
   34.845    1.5069
   34.980    1.3902
   35.115    1.4332
   35.250    1.3806
   35.385    1.4051
   35.520    1.3858
   35.655    1.4016
   35.790    1.3902
   35.925    1.3797
   36.060    1.3735
   36.195    1.4358
   36.330    1.3639
   36.465    1.3165
   36.600    1.3454
   36.735    1.3103
   36.870    1.2814
   37.005    1.3876
   37.140    1.4034
   37.275    1.2937
   37.410    1.2559
   37.545    1.3051
   37.680    1.2963
   37.815    1.2507
   37.950    1.3007
   38.085    1.2954
   38.220    1.2287
   38.355    1.2366
   38.490    1.2489
   38.625    1.1892
   38.760    1.2471
   38.895    1.2235
   39.030    1.1962
   39.165    1.2059
   39.300    1.2849
   39.435    1.2392
   39.570    1.2480
   39.705    1.2270
   39.840    1.2392
   39.975    1.2454
   39.990    1.2708