File: data/MOCOF-1/PXRD/PXRD_KE-196_Cu-Ka1_capillary-1mm_5s-deg.xyd
    1.500   13.7019
    1.635   11.6166
    1.770   10.1316
    1.905    9.1417
    2.040    7.8989
    2.175    7.7304
    2.310    6.5824
    2.445    6.2033
    2.580    5.7083
    2.715    5.4871
    2.850    4.6656
    2.985    4.7183
    3.120    4.1917
    3.255    4.2127
    3.390    4.0758
    3.525    3.7283
    3.660    3.9389
    3.795    3.7493
    3.930    3.5914
    4.065    3.6651
    4.200    3.3070
    4.335    3.5598
    4.470    3.4544
    4.605    3.3070
    4.740    3.3491
    4.875    2.9805
    5.010    2.9489
    5.145    2.8436
    5.280    2.7909
    5.415    2.8436
    5.550    2.8963
    5.685    2.6330
    5.820    2.7172
    5.955    2.5487
    6.090    2.7593
    6.225    2.9068
    6.360    2.7278
    6.495    2.7383
    6.630    2.7172
    6.765    2.4855
    6.900    2.5908
    7.035    2.7593
    7.170    2.7067
    7.305    2.6751
    7.440    2.7172
    7.575    2.5487
    7.710    2.7593
    7.845    2.7593
    7.980    2.5171
    8.115    2.7383
    8.250    2.6014
    8.385    2.4645
    8.520    2.6119
    8.655    2.6224
    8.790    2.5908
    8.925    2.7067
    9.060    2.6330
    9.195    2.3065
    9.330    2.5698
    9.465    2.5698
    9.600    2.5803
    9.735    2.2328
    9.870    2.4013
   10.005    2.4750
   10.140    2.4223
   10.275    2.2959
   10.410    2.3697
   10.545    2.3275
   10.680    2.5066
   10.815    2.5698
   10.950    2.6014
   11.085    2.2538
   11.220    2.6540
   11.355    2.4223
   11.490    2.4118
   11.625    2.3697
   11.760    2.3381
   11.895    2.5171
   12.030    2.4329
   12.165    2.4961
   12.300    2.3065
   12.435    2.4645
   12.570    2.3907
   12.705    2.2643
   12.840    2.1380
   12.975    2.1590
   13.110    2.3591
   13.245    2.1590
   13.380    2.0748
   13.515    2.3697
   13.650    2.2222
   13.785    2.4013
   13.920    2.0326
   14.055    2.3275
   14.190    2.2749
   14.325    2.2854
   14.460    2.4329
   14.595    2.1801
   14.730    2.2433
   14.865    2.3697
   15.000    2.2433
   15.135    2.3802
   15.270    2.3275
   15.405    2.4013
   15.540    2.3697
   15.675    2.4855
   15.810    2.4223
   15.945    2.3170
   16.080    2.4961
   16.215    2.6330
   16.350    2.1906
   16.485    2.4645
   16.620    2.5382
   16.755    2.3907
   16.890    2.1485
   17.025    2.3275
   17.160    2.3065
   17.295    2.5171
   17.430    2.2643
   17.565    2.4539
   17.700    2.4961
   17.835    2.3381
   17.970    2.6330
   18.105    2.2433
   18.240    2.4855
   18.375    2.3697
   18.510    2.2538
   18.645    2.1801
   18.780    2.5592
   18.915    2.3802
   19.050    2.5908
   19.185    2.2538
   19.320    2.5066
   19.455    2.2959
   19.590    2.2012
   19.725    2.2117
   19.860    2.3170
   19.995    2.4434
   20.130    2.4434
   20.265    2.3381
   20.400    2.5487
   20.535    2.4434
   20.670    2.5382
   20.805    2.3591
   20.940    2.4223
   21.075    2.3065
   21.210    2.1801
   21.345    2.3275
   21.480    2.4118
   21.615    2.2643
   21.750    2.5171
   21.885    2.4539
   22.020    2.3697
   22.155    2.3802
   22.290    2.6224
   22.425    2.5908
   22.560    2.4855
   22.695    2.3591
   22.830    2.5171
   22.965    2.3802
   23.100    2.3065
   23.235    2.4539
   23.370    2.2749
   23.505    2.4223
   23.640    2.2959
   23.775    2.4434
   23.910    2.2643
   24.045    2.3275
   24.180    2.5066
   24.315    2.4223
   24.450    2.1696
   24.585    2.2538
   24.720    2.2538
   24.855    2.2959
   24.990    2.1064
   25.125    2.3802
   25.260    2.1485
   25.395    2.4223
   25.530    2.4434
   25.665    2.4961
   25.800    2.2959
   25.935    2.2538
   26.070    2.0537
   26.205    2.3170
   26.340    2.2643
   26.475    2.2328
   26.610    2.1169
   26.745    2.0748
   26.880    2.0432
   27.015    2.0748
   27.150    2.2643
   27.285    2.1696
   27.420    2.2643
   27.555    2.2012
   27.690    2.1696
   27.825    2.0748
   27.960    1.9905
   28.095    2.0853
   28.230    2.1169
   28.365    1.9695
   28.500    2.1169
   28.635    1.8957
   28.770    2.1801
   28.905    2.0011
   29.040    1.9905
   29.175    1.9484
   29.310    2.0432
   29.445    1.9484
   29.580    1.8009
   29.715    2.0642
   29.850    1.9695
   29.985    1.9695
   30.120    1.7167
   30.255    1.9379
   30.390    1.9484
   30.525    1.7799
   30.660    2.1380
   30.795    1.8431
   30.930    1.8325
   31.065    1.8115
   31.200    1.7694
   31.335    1.8325
   31.470    1.9589
   31.605    1.7483
   31.740    1.6851
   31.875    1.9273
   32.010    1.8009
   32.145    1.5587
   32.280    1.6956
   32.415    1.9695
   32.550    1.6324
   32.685    1.7904
   32.820    1.6746
   32.955    1.6114
   33.090    1.5271
   33.225    1.4323
   33.360    1.7799
   33.495    1.5482
   33.630    1.6640
   33.765    1.6851
   33.900    1.7483
   34.035    1.7799
   34.170    1.6640
   34.305    1.6008
   34.440    1.5271
   34.575    1.6008
   34.710    1.6640
   34.845    1.4429
   34.980    1.5587
   35.115    1.6008
   35.250    1.3902
   35.385    1.6219
   35.520    1.4955
   35.655    1.5798
   35.790    1.4113
   35.925    1.6430
   36.060    1.3902
   36.195    1.4323
   36.330    1.4534
   36.465    1.3586
   36.600    1.5587
   36.735    1.6535
   36.870    1.3797
   37.005    1.3902
   37.140    1.4113
   37.275    1.3902
   37.410    1.3481
   37.545    1.3481
   37.680    1.3481
   37.815    1.4007
   37.950    1.4429
   38.085    1.5377
   38.220    1.2428
   38.355    1.4429
   38.490    1.4007
   38.625    1.4113
   38.760    1.3270
   38.895    1.5377
   39.030    1.4745
   39.165    1.4429
   39.300    1.2533
   39.435    1.2006
   39.570    1.2849
   39.705    1.3060
   39.840    1.2533
   39.975    1.2744
   39.990    1.2954