File: data/MOCOF-1/PXRD/PXRD_KE-049-5_Cu-Ka1_capillary-1mm_5s-deg.xyd
    1.500    4.4339
    1.575    4.6235
    1.650    4.4023
    1.725    4.5182
    1.800    4.0864
    1.875    4.0126
    1.950    3.6440
    2.025    3.8125
    2.100    3.6756
    2.175    3.5703
    2.250    3.7809
    2.325    3.8020
    2.400    3.9389
    2.475    3.8863
    2.550    3.5387
    2.625    3.7177
    2.700    3.5176
    2.775    3.6546
    2.850    3.4966
    2.925    4.0337
    3.000    3.7177
    3.075    3.6230
    3.150    3.8863
    3.225    4.0126
    3.300    4.0758
    3.375    4.2759
    3.450    4.7183
    3.525    4.1811
    3.600    3.9600
    3.675    3.7704
    3.750    3.5387
    3.825    4.0021
    3.900    3.8441
    3.975    3.8863
    4.050    3.9284
    4.125    4.0442
    4.200    3.7704
    4.275    3.2333
    4.350    3.0437
    4.425    3.3491
    4.500    3.4123
    4.575    3.4123
    4.650    3.1912
    4.725    3.3913
    4.800    3.6546
    4.875    3.4229
    4.950    3.6546
    5.025    3.6440
    5.100    3.7283
    5.175    3.6019
    5.250    3.9810
    5.325    3.6862
    5.400    3.7704
    5.475    3.5071
    5.550    3.3702
    5.625    3.4123
    5.700    3.2754
    5.775    3.5703
    5.850    3.5071
    5.925    3.3175
    6.000    3.4755
    6.075    3.2649
    6.150    3.4439
    6.225    3.2333
    6.300    3.3386
    6.375    3.4650
    6.450    3.5071
    6.525    3.6862
    6.600    3.5808
    6.675    3.2017
    6.750    3.8336
    6.825    3.5282
    6.900    3.5808
    6.975    3.6756
    7.050    3.7915
    7.125    3.4229
    7.200    3.1912
    7.275    3.3491
    7.350    3.7072
    7.425    3.6019
    7.500    3.5492
    7.575    3.7388
    7.650    3.5808
    7.725    3.5492
    7.800    3.5914
    7.875    3.7493
    7.950    3.6862
    8.025    4.0126
    8.100    3.8125
    8.175    3.9073
    8.250    3.8125
    8.325    3.9389
    8.400    4.0442
    8.475    3.8547
    8.550    3.7704
    8.625    3.7388
    8.700    3.7283
    8.775    3.8863
    8.850    3.6335
    8.925    3.9494
    9.000    3.8125
    9.075    4.0232
    9.150    3.9389
    9.225    4.1074
    9.300    4.2759
    9.375    4.0969
    9.450    3.7177
    9.525    4.0864
    9.600    4.1811
    9.675    4.1706
    9.750    3.9494
    9.825    4.2759
    9.900    4.5182
    9.975    4.2022
   10.050    4.2443
   10.125    4.1074
   10.200    4.0548
   10.275    4.3181
   10.350    4.4760
   10.425    4.0337
   10.500    4.6340
   10.575    4.6761
   10.650    4.2443
   10.725    4.2865
   10.800    4.7288
   10.875    4.6551
   10.950    4.4655
   11.025    4.6130
   11.100    4.3075
   11.175    4.3813
   11.250    4.6340
   11.325    4.4023
   11.400    4.7604
   11.475    4.7815
   11.550    5.0658
   11.625    4.6130
   11.700    4.5603
   11.775    5.1501
   11.850    4.8447
   11.925    4.9816
   12.000    5.0764
   12.075    4.9184
   12.150    4.9605
   12.225    4.9078
   12.300    5.3186
   12.375    4.8552
   12.450    5.2343
   12.525    5.3291
   12.600    5.3712
   12.675    5.1606
   12.750    5.5292
   12.825    5.1817
   12.900    5.3081
   12.975    5.3712
   13.050    5.7925
   13.125    5.9400
   13.200    5.8978
   13.275    5.3397
   13.350    5.5714
   13.425    6.0769
   13.500    6.2559
   13.575    5.9821
   13.650    6.2454
   13.725    5.7715
   13.800    6.0769
   13.875    6.3928
   13.950    6.3296
   14.025    6.3928
   14.100    6.4139
   14.175    6.7825
   14.250    6.2665
   14.325    6.8141
   14.400    6.8773
   14.475    6.7299
   14.550    7.1195
   14.625    6.8668
   14.700    7.4355
   14.775    7.2775
   14.850    7.3723
   14.925    7.3196
   15.000    7.5197
   15.075    7.4566
   15.150    7.8146
   15.225    7.8778
   15.300    8.0463
   15.375    8.1306
   15.450    8.4887
   15.525    8.2780
   15.600    8.4466
   15.675    8.9837
   15.750    8.8678
   15.825    8.4044
   15.900    9.0047
   15.975    9.0785
   16.050    9.6893
   16.125    9.5208
   16.200    9.6367
   16.275    9.7420
   16.350   10.0474
   16.425   10.2896
   16.500   10.3212
   16.575   10.4265
   16.650   10.4476
   16.725   10.3949
   16.800   10.4792
   16.875   11.0058
   16.950   10.9637
   17.025   11.2480
   17.100   11.4481
   17.175   12.1011
   17.250   11.6061
   17.325   12.0590
   17.400   12.5224
   17.475   12.6172
   17.550   13.1543
   17.625   12.4697
   17.700   13.1122
   17.775   12.3960
   17.850   13.2807
   17.925   12.9858
   18.000   13.5756
   18.075   13.5545
   18.150   13.8494
   18.225   14.1338
   18.300   14.2601
   18.375   14.2496
   18.450   13.5756
   18.525   14.1759
   18.600   14.8499
   18.675   14.8710
   18.750   14.0495
   18.825   14.8815
   18.900   14.8920
   18.975   15.4713
   19.050   15.0395
   19.125   15.5134
   19.200   14.9974
   19.275   14.7973
   19.350   15.1659
   19.425   14.9026
   19.500   15.1027
   19.575   15.4081
   19.650   14.6603
   19.725   14.5129
   19.800   15.0606
   19.875   14.9447
   19.950   14.4181
   20.025   14.9974
   20.100   14.4813
   20.175   14.7867
   20.250   14.1969
   20.325   14.1338
   20.400   14.7025
   20.475   14.7867
   20.550   14.7025
   20.625   14.0600
   20.700   13.9968
   20.775   13.9337
   20.850   13.9442
   20.925   14.3233
   21.000   13.8073
   21.075   13.5756
   21.150   13.4913
   21.225   13.7019
   21.300   13.4281
   21.375   13.0174
   21.450   13.3544
   21.525   13.9337
   21.600   13.2596
   21.675   13.0279
   21.750   12.6804
   21.825   13.3123
   21.900   12.4065
   21.975   12.5224
   22.050   12.4697
   22.125   12.1748
   22.200   12.6277
   22.275   11.9853
   22.350   12.7120
   22.425   11.8483
   22.500   12.0906
   22.575   11.6482
   22.650   12.3117
   22.725   11.2902
   22.800   12.1222
   22.875   11.4903
   22.950   11.8062
   22.965   11.7536