File: data/MOCOF-1/PXRD/PXRD_KE-146_Cu-Ka1_capillary-1mm_5s-deg.xyd
    1.500   35.8926
    1.635   30.5003
    1.770   25.8031
    1.905   22.1485
    2.040   20.2528
    2.175   18.1569
    2.310   16.0506
    2.445   16.1032
    2.580   15.9347
    2.715   16.5350
    2.850   16.8088
    2.985   19.3786
    3.120   22.0326
    3.255   26.7299
    3.390   35.1132
    3.525   36.2928
    3.660   28.2254
    3.795   22.2959
    3.930   19.8104
    4.065   16.4086
    4.200   14.3233
    4.335   12.4381
    4.470   10.1527
    4.605    8.8889
    4.740    8.3623
    4.875    7.4144
    5.010    7.0879
    5.145    7.2143
    5.280    7.0142
    5.415    6.4876
    5.550    6.1717
    5.685    6.2138
    5.820    6.2138
    5.955    5.9084
    6.090    6.2559
    6.225    6.1190
    6.360    5.7399
    6.495    6.1506
    6.630    6.5719
    6.765    6.8984
    6.900    7.7620
    7.035    7.6883
    7.170    7.3723
    7.305    6.8984
    7.440    6.4350
    7.575    6.5613
    7.710    6.3296
    7.845    6.5719
    7.980    6.5824
    8.115    6.4034
    8.250    6.3928
    8.385    6.1611
    8.520    6.1611
    8.655    6.1295
    8.790    6.2665
    8.925    5.8662
    9.060    5.8978
    9.195    5.9084
    9.330    5.6977
    9.465    5.7399
    9.600    5.7925
    9.735    5.4344
    9.870    5.4660
   10.005    5.9294
   10.140    5.4028
   10.275    5.8978
   10.410    5.8557
   10.545    5.5398
   10.680    5.5924
   10.815    5.6451
   10.950    5.7504
   11.085    5.4028
   11.220    5.6977
   11.355    5.4344
   11.490    5.6029
   11.625    5.2870
   11.760    5.2449
   11.895    5.5398
   12.030    5.4134
   12.165    5.1080
   12.300    5.6135
   12.435    5.2975
   12.570    5.2343
   12.705    5.5608
   12.840    5.5398
   12.975    5.4976
   13.110    5.1817
   13.245    5.4028
   13.380    5.4028
   13.515    5.2765
   13.650    5.4766
   13.785    5.0553
   13.920    5.2975
   14.055    5.3186
   14.190    5.3818
   14.325    5.0764
   14.460    5.6345
   14.595    5.3502
   14.730    4.6867
   14.865    5.0448
   15.000    4.9710
   15.135    5.1080
   15.270    5.3818
   15.405    5.1922
   15.540    5.2238
   15.675    4.8763
   15.810    5.0132
   15.945    5.7188
   16.080    5.5082
   16.215    5.3397
   16.350    5.0658
   16.485    5.0764
   16.620    5.3712
   16.755    5.2238
   16.890    5.1080
   17.025    5.0658
   17.160    5.1290
   17.295    5.2765
   17.430    5.0974
   17.565    5.2765
   17.700    5.7083
   17.835    5.1395
   17.970    5.0132
   18.105    5.0026
   18.240    5.2027
   18.375    5.5819
   18.510    5.1290
   18.645    5.7188
   18.780    5.7083
   18.915    4.9816
   19.050    5.6240
   19.185    5.3186
   19.320    5.1817
   19.455    5.4450
   19.590    5.4028
   19.725    5.4450
   19.860    5.2870
   19.995    5.4239
   20.130    5.4766
   20.265    5.5819
   20.400    5.5924
   20.535    5.4239
   20.670    5.5714
   20.805    5.7925
   20.940    5.4766
   21.075    5.7188
   21.210    5.5082
   21.345    5.8557
   21.480    5.2975
   21.615    5.6767
   21.750    5.5608
   21.885    5.5714
   22.020    5.5608
   22.155    5.4660
   22.290    5.4028
   22.425    5.9821
   22.560    5.5503
   22.695    5.5398
   22.830    5.6345
   22.965    5.7820
   23.100    5.7820
   23.235    5.5819
   23.370    5.1606
   23.505    5.4660
   23.640    5.0026
   23.775    5.6661
   23.910    5.4028
   24.045    5.3081
   24.180    5.1606
   24.315    5.9294
   24.450    5.0764
   24.585    5.2133
   24.720    5.0237
   24.855    5.1501
   24.990    5.4555
   25.125    5.4028
   25.260    5.1395
   25.395    5.3186
   25.530    5.1395
   25.665    5.2554
   25.800    5.2343
   25.935    5.0764
   26.070    4.8973
   26.205    5.3186
   26.340    5.0132
   26.475    4.7499
   26.610    4.9605
   26.745    4.5919
   26.880    4.8973
   27.015    4.8657
   27.150    4.9394
   27.285    4.5814
   27.420    4.7288
   27.555    4.7393
   27.690    4.6972
   27.825    4.6235
   27.960    5.0764
   28.095    4.8763
   28.230    4.8025
   28.365    4.6340
   28.500    4.4655
   28.635    4.9500
   28.770    4.8236
   28.905    4.7183
   29.040    4.4234
   29.175    4.6445
   29.310    4.7183
   29.445    4.8131
   29.580    4.4655
   29.715    4.6972
   29.850    4.5603
   29.985    4.7920
   30.120    4.5498
   30.255    4.6340
   30.390    4.2443
   30.525    4.5076
   30.660    4.4550
   30.795    4.2865
   30.930    4.2127
   31.065    4.5076
   31.200    4.5076
   31.335    4.3286
   31.470    4.4550
   31.605    3.9810
   31.740    4.5919
   31.875    4.6130
   32.010    4.3286
   32.145    4.7393
   32.280    4.3075
   32.415    3.9916
   32.550    4.2443
   32.685    4.4550
   32.820    3.7599
   32.955    4.2338
   33.090    4.1811
   33.225    4.2970
   33.360    3.9705
   33.495    4.4339
   33.630    4.1180
   33.765    4.1180
   33.900    4.2970
   34.035    3.9600
   34.170    4.0864
   34.305    3.7493
   34.440    4.0864
   34.575    3.7704
   34.710    4.1917
   34.845    3.9494
   34.980    3.4860
   35.115    4.0758
   35.250    3.9810
   35.385    3.6124
   35.520    3.6440
   35.655    3.8441
   35.790    3.7493
   35.925    3.7599
   36.060    3.7283
   36.195    3.6440
   36.330    3.8968
   36.465    3.8547
   36.600    3.4755
   36.735    3.4439
   36.870    3.6756
   37.005    3.2122
   37.140    3.5808
   37.275    3.6756
   37.410    3.6651
   37.545    3.4123
   37.680    3.6124
   37.815    3.6124
   37.950    3.6335
   38.085    3.4755
   38.220    3.5598
   38.355    3.6230
   38.490    3.5598
   38.625    3.6546
   38.760    3.4229
   38.895    3.8020
   39.030    3.7809
   39.165    3.5492
   39.300    3.4334
   39.435    3.5387
   39.570    3.5387
   39.705    3.3281
   39.840    3.5282
   39.975    3.6019
   39.990    3.4229