File: data/MOCOF-1/PXRD/PXRD_KE-182_Cu-Ka1_capillary-1mm_5s-deg.xyd
    1.500   20.4634
    1.635   16.8720
    1.770   14.3339
    1.905   11.8905
    2.040   10.6056
    2.175    9.2680
    2.310    8.0463
    2.445    7.2880
    2.580    7.0985
    2.715    5.9610
    2.850    6.1085
    2.985    5.5819
    3.120    5.5187
    3.255    5.7820
    3.390    5.8241
    3.525    6.9932
    3.660    9.2259
    3.795   15.2396
    3.930   16.9142
    4.065    4.4760
    4.200    4.4444
    4.335    4.3918
    4.470    4.2549
    4.605    4.3918
    4.740    4.3075
    4.875    4.0126
    5.010    3.9705
    5.145    4.3813
    5.280    4.8657
    5.415    6.3928
    5.550    8.0358
    5.685    4.0758
    5.820    3.9494
    5.955    3.7915
    6.090    3.8336
    6.225    4.0337
    6.360    3.8547
    6.495    3.9179
    6.630    4.1180
    6.765    5.5924
    6.900    3.8757
    7.035    3.7493
    7.170    4.0653
    7.305    3.8231
    7.440    4.0969
    7.575    3.9810
    7.710    4.3918
    7.845    4.4971
    7.980    3.8336
    8.115    4.0864
    8.250    3.9389
    8.385    3.7599
    8.520    3.6335
    8.655    3.8863
    8.790    4.1811
    8.925    4.1180
    9.060    3.9916
    9.195    3.8968
    9.330    4.0442
    9.465    4.4760
    9.600    6.2559
    9.735    4.0337
    9.870    4.0758
   10.005    3.9179
   10.140    3.8231
   10.275    4.4128
   10.410    3.9494
   10.545    3.8968
   10.680    3.8547
   10.815    3.8652
   10.950    4.0653
   11.085    4.5498
   11.220    3.8968
   11.355    3.7388
   11.490    3.6967
   11.625    3.9600
   11.760    4.5603
   11.895    3.5703
   12.030    3.8757
   12.165    3.8757
   12.300    3.6862
   12.435    3.4439
   12.570    3.7599
   12.705    3.3070
   12.840    3.4650
   12.975    4.2233
   13.110    3.6124
   13.245    3.6651
   13.380    3.5808
   13.515    3.8125
   13.650    3.2754
   13.785    3.4229
   13.920    3.6862
   14.055    3.8863
   14.190    3.7283
   14.325    3.5282
   14.460    3.5176
   14.595    3.4229
   14.730    3.2859
   14.865    3.3175
   15.000    3.4544
   15.135    3.6440
   15.270    3.5492
   15.405    3.7388
   15.540    3.6756
   15.675    3.6335
   15.810    3.8757
   15.945    3.6756
   16.080    3.7388
   16.215    3.9705
   16.350    3.9073
   16.485    3.8231
   16.620    3.8968
   16.755    3.6756
   16.890    3.4229
   17.025    3.7915
   17.160    3.7283
   17.295    3.3491
   17.430    3.5598
   17.565    3.7809
   17.700    3.5808
   17.835    3.3807
   17.970    3.5282
   18.105    4.1706
   18.240    3.5176
   18.375    4.0126
   18.510    3.7283
   18.645    3.1701
   18.780    3.5387
   18.915    3.6230
   19.050    4.4339
   19.185    3.7915
   19.320    3.4860
   19.455    3.4018
   19.590    3.8125
   19.725    3.7388
   19.860    3.4755
   19.995    3.9179
   20.130    3.5176
   20.265    3.5808
   20.400    3.9284
   20.535    3.8336
   20.670    3.6335
   20.805    3.3807
   20.940    3.7177
   21.075    3.6546
   21.210    3.9494
   21.345    3.4966
   21.480    3.7072
   21.615    3.7072
   21.750    3.5282
   21.885    3.5071
   22.020    3.9600
   22.155    3.3702
   22.290    3.9073
   22.425    3.7599
   22.560    4.0548
   22.695    3.3913
   22.830    3.7704
   22.965    4.2022
   23.100    4.0758
   23.235    3.9810
   23.370    3.4229
   23.505    3.4650
   23.640    3.6440
   23.775    3.5808
   23.910    3.6651
   24.045    3.8652
   24.180    3.6756
   24.315    3.3175
   24.450    3.6546
   24.585    3.5387
   24.720    3.8757
   24.855    3.6019
   24.990    3.7493
   25.125    3.5071
   25.260    3.7283
   25.395    3.8968
   25.530    3.5703
   25.665    3.3597
   25.800    3.5914
   25.935    3.4439
   26.070    3.3386
   26.205    4.0232
   26.340    3.4544
   26.475    3.3807
   26.610    3.4229
   26.745    3.6019
   26.880    3.4439
   27.015    3.4755
   27.150    3.2227
   27.285    3.8441
   27.420    3.3597
   27.555    3.3386
   27.690    3.6756
   27.825    3.4860
   27.960    3.6335
   28.095    3.7177
   28.230    3.7388
   28.365    3.3807
   28.500    3.3807
   28.635    3.4966
   28.770    3.1174
   28.905    3.7599
   29.040    3.7704
   29.175    3.4123
   29.310    3.4650
   29.445    3.4966
   29.580    3.5071
   29.715    3.5387
   29.850    3.3807
   29.985    3.0121
   30.120    3.6335
   30.255    3.4966
   30.390    3.5282
   30.525    3.2333
   30.660    3.5598
   30.795    3.2438
   30.930    3.3597
   31.065    3.4860
   31.200    3.1912
   31.335    3.2754
   31.470    3.2543
   31.605    3.3281
   31.740    3.6756
   31.875    3.7809
   32.010    3.5492
   32.145    4.7393
   32.280    3.1806
   32.415    3.1596
   32.550    3.2438
   32.685    3.1701
   32.820    3.2017
   32.955    3.1701
   33.090    3.0332
   33.225    3.3491
   33.360    3.0648
   33.495    3.1174
   33.630    3.4123
   33.765    3.3070
   33.900    3.5598
   34.035    3.1490
   34.170    2.8436
   34.305    2.8120
   34.440    3.0753
   34.575    3.0964
   34.710    2.9384
   34.845    2.8120
   34.980    3.3702
   35.115    3.0437
   35.250    2.9384
   35.385    2.7172
   35.520    2.9700
   35.655    3.0121
   35.790    3.0437
   35.925    2.8331
   36.060    2.8331
   36.195    3.1069
   36.330    2.7699
   36.465    2.8225
   36.600    2.8225
   36.735    2.7278
   36.870    2.8541
   37.005    2.9805
   37.140    3.0016
   37.275    3.0226
   37.410    3.0648
   37.545    2.8857
   37.680    2.8120
   37.815    2.6962
   37.950    2.9384
   38.085    2.8331
   38.220    2.9805
   38.355    2.9700
   38.490    2.9489
   38.625    3.0016
   38.760    3.1174
   38.895    2.9910
   39.030    3.2333
   39.165    3.0858
   39.300    2.8963
   39.435    3.1912
   39.570    2.9700
   39.705    3.1069
   39.840    3.0437
   39.975    2.9068
   39.990    2.7909