File: data/MOCOF-1/PXRD/PXRD_KE-054_Cu-Ka1_film-3mm_5s-deg.xyd
    1.500   15.6609
    1.635   14.5445
    1.770   14.0179
    1.905   12.9226
    2.040   12.4697
    2.175   11.6798
    2.310   11.3744
    2.445   10.7741
    2.580    9.7209
    2.715    9.5524
    2.850    9.7209
    2.985    9.2575
    3.120    9.1522
    3.255    9.8789
    3.390   11.5324
    3.525   12.7541
    3.660   13.5229
    3.795   11.9326
    3.930   10.6266
    4.065    9.3102
    4.200    8.9731
    4.335    8.1095
    4.470    8.1727
    4.605    8.4571
    4.740    7.5619
    4.875    7.9305
    5.010    7.7936
    5.145    8.7520
    5.280    8.8152
    5.415    9.2048
    5.550    9.2891
    5.685    8.9415
    5.820    8.2570
    5.955    7.3723
    6.090    6.8984
    6.225    6.3612
    6.360    6.9510
    6.495    6.3928
    6.630    6.0348
    6.765    5.9926
    6.900    6.0137
    7.035    5.6345
    7.170    5.9294
    7.305    5.5608
    7.440    5.4766
    7.575    5.2027
    7.710    5.2027
    7.845    4.7604
    7.980    4.8236
    8.115    4.8131
    8.250    4.5498
    8.385    4.3286
    8.520    4.5498
    8.655    4.0442
    8.790    3.8652
    8.925    3.8863
    9.060    3.7599
    9.195    4.2654
    9.330    3.8020
    9.465    3.6124
    9.600    3.7283
    9.735    4.0126
    9.870    3.6862
   10.005    3.9389
   10.140    3.7809
   10.275    3.9494
   10.410    3.8652
   10.545    3.7072
   10.680    4.1074
   10.815    3.9179
   10.950    3.8968
   11.085    3.8441
   11.220    4.3602
   11.355    3.8125
   11.490    4.0653
   11.625    4.0126
   11.760    3.9810
   11.895    3.7072
   12.030    3.6124
   12.165    3.7283
   12.300    3.6124
   12.435    3.5808
   12.570    3.8020
   12.705    3.5914
   12.840    3.8336
   12.975    3.4229
   13.110    3.6756
   13.245    3.8336
   13.380    3.6862
   13.515    3.7493
   13.650    3.6440
   13.785    3.7283
   13.920    3.8441
   14.055    4.0548
   14.190    3.9284
   14.325    4.4339
   14.460    4.2759
   14.595    3.9389
   14.730    4.0758
   14.865    3.7704
   15.000    4.0442
   15.135    3.4123
   15.270    3.8547
   15.405    3.7915
   15.540    3.8757
   15.675    3.9073
   15.810    3.4439
   15.945    3.8652
   16.080    3.7388
   16.215    3.9284
   16.350    3.5703
   16.485    4.0337
   16.620    3.8231
   16.755    3.5176
   16.890    3.8020
   17.025    3.4966
   17.160    3.7072
   17.295    3.7283
   17.430    3.8441
   17.565    3.5282
   17.700    3.7915
   17.835    3.7283
   17.970    3.8757
   18.105    3.7599
   18.240    4.1706
   18.375    4.0442
   18.510    3.5492
   18.645    3.8863
   18.780    3.5914
   18.915    3.7704
   19.050    4.6445
   19.185    3.9073
   19.320    3.6651
   19.455    3.6124
   19.590    3.6335
   19.725    3.6546
   19.860    3.6862
   19.995    3.6440
   20.130    3.4650
   20.265    3.5703
   20.400    3.5176
   20.535    3.6230
   20.670    3.0542
   20.805    3.3386
   20.940    3.3702
   21.075    3.7388
   21.210    3.3281
   21.345    3.2227
   21.480    3.2754
   21.615    3.3070
   21.750    3.0753
   21.885    3.4966
   22.020    3.4966
   22.155    3.4755
   22.290    3.5387
   22.425    3.1806
   22.560    3.1385
   22.695    3.1596
   22.830    3.0121
   22.965    3.2543
   23.100    3.4334
   23.235    2.8331
   23.370    3.1701
   23.505    2.7278
   23.640    3.0121
   23.775    3.0121
   23.910    2.8331
   24.045    2.7488
   24.180    2.9068
   24.315    2.7593
   24.450    2.5803
   24.585    2.7278
   24.720    2.7593
   24.855    2.5592
   24.990    2.5698
   25.125    2.3381
   25.260    2.6751
   25.395    2.5698
   25.530    2.7804
   25.665    2.4961
   25.800    2.6435
   25.935    2.4961
   26.070    2.2854
   26.205    2.6224
   26.340    2.3275
   26.475    2.3275
   26.610    2.3486
   26.745    2.2749
   26.880    2.4013
   27.015    2.0853
   27.150    2.2854
   27.285    2.3591
   27.420    2.0853
   27.555    2.1485
   27.690    2.1485
   27.825    1.8220
   27.960    2.3907
   28.095    2.2222
   28.230    2.0432
   28.365    1.9800
   28.500    1.8536
   28.635    1.8747
   28.770    1.9379
   28.905    1.9589
   29.040    2.3697
   29.175    1.9484
   29.310    1.9168
   29.445    1.7904
   29.580    1.8325
   29.715    1.8325
   29.850    1.5798
   29.985    1.5798
   30.120    1.6324
   30.255    1.6008
   30.390    1.7167
   30.525    1.8009
   30.660    1.4850
   30.795    1.4639
   30.930    1.5271
   31.065    1.4639
   31.200    1.3586
   31.335    1.3060
   31.470    1.2849
   31.605    1.4639
   31.740    1.6324
   31.875    1.5587
   32.010    1.6008
   32.145    2.4961
   32.280    1.6008
   32.415    1.2849
   32.550    1.3481
   32.685    1.3902
   32.820    1.3586
   32.955    1.2744
   33.090    1.2006
   33.225    1.2112
   33.360    1.3165
   33.495    1.3586
   33.630    1.2849
   33.765    1.3270
   33.900    1.6324
   34.035    1.1690
   34.170    1.2322
   34.305    1.2112
   34.440    1.2112
   34.575    1.1058
   34.710    1.0216
   34.845    1.1058
   34.980    1.3902
   35.115    1.1374
   35.250    1.0427
   35.385    1.1269
   35.520    1.1058
   35.655    1.3270
   35.790    1.1269
   35.925    1.2112
   36.060    1.1058
   36.195    1.2006
   36.330    1.2322
   36.465    1.1374
   36.600    1.2322
   36.735    1.1585
   36.870    1.0111
   37.005    1.1374
   37.140    1.1796
   37.275    1.0005
   37.410    1.0742
   37.545    1.1690
   37.680    1.0321
   37.815    1.1901
   37.950    1.2112
   38.085    1.0111
   38.220    1.2217
   38.355    1.1374
   38.490    1.1374
   38.625    1.2638
   38.760    1.0532
   38.895    1.1164
   39.030    1.0848
   39.165    1.1480
   39.300    0.9057
   39.435    1.0111
   39.570    1.1480
   39.705    1.0532
   39.840    1.1796
   39.975    1.0216
   39.990    0.9689