File: data/MOCOF-1/PXRD/PXRD_KE-029_Cu-Ka1_capillary-1mm_5s-deg.xyd
    1.500    4.9500
    1.635    4.6340
    1.770    4.3040
    1.905    3.8757
    2.040    3.8441
    2.175    3.5527
    2.310    3.4439
    2.445    3.5282
    2.580    3.2333
    2.715    3.4229
    2.850    3.5282
    2.985    3.6054
    3.120    3.9846
    3.255    4.3637
    3.390    5.3888
    3.525    6.5543
    3.660    5.8908
    3.795    4.9570
    3.930    4.3848
    4.065    4.1180
    4.200    3.9670
    4.335    3.7809
    4.470    3.7107
    4.605    3.7072
    4.740    3.7213
    4.875    3.8231
    5.010    3.9143
    5.145    3.8441
    5.280    3.8687
    5.415    3.6826
    5.550    3.5282
    5.685    3.5633
    5.820    3.4685
    5.955    3.4053
    6.090    3.3737
    6.225    3.3140
    6.360    3.2017
    6.495    3.2824
    6.630    3.3702
    6.765    3.3948
    6.900    3.6089
    7.035    3.9108
    7.170    3.8827
    7.305    3.6370
    7.440    3.1666
    7.575    3.0086
    7.710    2.8928
    7.845    2.9068
    7.980    2.9419
    8.115    2.6681
    8.250    2.6926
    8.385    2.7313
    8.520    2.7593
    8.655    2.5663
    8.790    2.7488
    8.925    2.6295
    9.060    2.8015
    9.195    2.6681
    9.330    2.6224
    9.465    2.6330
    9.600    2.5276
    9.735    2.7067
    9.870    2.6084
   10.005    2.7032
   10.140    2.6189
   10.275    2.7488
   10.410    2.6014
   10.545    2.6891
   10.680    2.7769
   10.815    2.9103
   10.950    2.7593
   11.085    2.7242
   11.220    2.7734
   11.355    2.7348
   11.490    2.6540
   11.625    2.5417
   11.760    2.6821
   11.895    2.5733
   12.030    2.6014
   12.165    2.5487
   12.300    2.6505
   12.435    2.6575
   12.570    2.7032
   12.705    2.7137
   12.840    2.5522
   12.975    2.5979
   13.110    2.6646
   13.245    2.6400
   13.380    2.6400
   13.515    2.7418
   13.650    2.5803
   13.785    2.6295
   13.920    2.6751
   14.055    2.6926
   14.190    2.7523
   14.325    2.7348
   14.460    2.7172
   14.595    2.6716
   14.730    2.6154
   14.865    2.6997
   15.000    2.8225
   15.135    2.6189
   15.270    2.6786
   15.405    2.8015
   15.540    2.8155
   15.675    2.7909
   15.810    2.7102
   15.945    2.8225
   16.080    2.9314
   16.215    2.8155
   16.350    2.8998
   16.485    3.0402
   16.620    2.8752
   16.755    2.9595
   16.890    2.8822
   17.025    2.9454
   17.160    2.9419
   17.295    3.0718
   17.430    3.1806
   17.565    3.1069
   17.700    3.1245
   17.835    3.3140
   17.970    3.3597
   18.105    3.2789
   18.240    3.3386
   18.375    3.2930
   18.510    3.2017
   18.645    3.2227
   18.780    3.3351
   18.915    3.2438
   19.050    3.2368
   19.185    3.3772
   19.320    3.3562
   19.455    3.4123
   19.590    3.2930
   19.725    3.3035
   19.860    3.2263
   19.995    3.3421
   20.130    3.3351
   20.265    3.2895
   20.400    3.3316
   20.535    3.2754
   20.670    3.3421
   20.805    3.3562
   20.940    3.5176
   21.075    3.3105
   21.210    3.3877
   21.345    3.3597
   21.480    3.5247
   21.615    3.5492
   21.750    3.4966
   21.885    3.4369
   22.020    3.5001
   22.155    3.5352
   22.290    3.5598
   22.425    3.3877
   22.560    3.3877
   22.695    3.5212
   22.830    3.6546
   22.965    3.4509
   23.100    3.5247
   23.235    3.5879
   23.370    3.4299
   23.505    3.5668
   23.640    3.4299
   23.775    3.5387
   23.910    3.3772
   24.045    3.3175
   24.180    3.3737
   24.315    3.4825
   24.450    3.3562
   24.585    3.4264
   24.720    3.3386
   24.855    3.3456
   24.990    3.2263
   25.125    3.3667
   25.260    3.3175
   25.395    3.3421
   25.530    3.2368
   25.665    3.4334
   25.800    3.1806
   25.935    3.2298
   26.070    3.0788
   26.205    3.1631
   26.340    3.0929
   26.475    3.1596
   26.610    3.0332
   26.745    3.1420
   26.880    3.0788
   27.015    3.1350
   27.150    3.0367
   27.285    3.0893
   27.420    2.9173
   27.555    3.0297
   27.690    3.0683
   27.825    2.9279
   27.960    2.9700
   28.095    2.8963
   28.230    2.9700
   28.365    3.0718
   28.500    2.8857
   28.635    2.7242
   28.770    2.8225
   28.905    2.8401
   29.040    2.8471
   29.175    2.8401
   29.310    2.8822
   29.445    2.9314
   29.580    2.7523
   29.715    2.7278
   29.850    2.6997
   29.985    2.7593
   30.120    2.7453
   30.255    2.7558
   30.390    2.6014
   30.525    2.8050
   30.660    2.6610
   30.795    2.5838
   30.930    2.3907
   31.065    2.4258
   31.200    2.4890
   31.335    2.4223
   31.470    2.6681
   31.605    2.4048
   31.740    2.6295
   31.875    2.4469
   32.010    2.2328
   32.145    2.3381
   32.280    2.3907
   32.415    2.2222
   32.550    2.3240
   32.685    2.1450
   32.820    2.1766
   32.955    2.1415
   33.090    2.2012
   33.225    2.2047
   33.360    2.1976
   33.495    2.2187
   33.630    2.1029
   33.765    2.0046
   33.900    2.0116
   34.035    1.9765
   34.170    1.9975
   34.305    1.9379
   34.440    1.9133
   34.575    1.8571
   34.710    1.8255
   34.845    1.8536
   34.980    1.7518
   35.115    1.8431
   35.250    1.7799
   35.385    1.7448
   35.520    1.6359
   35.655    1.6254
   35.790    1.6149
   35.925    1.7062
   36.060    1.6219
   36.195    1.6640
   36.330    1.5166
   36.465    1.6395
   36.600    1.7237
   36.735    1.6324
   36.870    1.5271
   37.005    1.5868
   37.140    1.4604
   37.275    1.4850
   37.410    1.5236
   37.545    1.3902
   37.680    1.4183
   37.815    1.4148
   37.950    1.3902
   38.085    1.4499
   38.220    1.4323
   38.355    1.4429
   38.490    1.4183
   38.625    1.3727
   38.760    1.4464
   38.895    1.3902
   39.030    1.3305
   39.165    1.2322
   39.300    1.2954
   39.435    1.4113
   39.570    1.4323
   39.705    1.3551
   39.840    1.3691
   39.975    1.2357
   39.990    1.1374