File: data/MOCOF-1/PXRD/PXRD_KE-295_Cu-Ka1_film-3mm_3s-deg.xyd
    1.500   13.9547
    1.635   12.8138
    1.770   12.5856
    1.905   11.4446
    2.040   10.3563
    2.175   10.0579
    2.310    9.9526
    2.445    9.3558
    2.580    9.8122
    2.715    8.8292
    2.850    8.4430
    2.985    8.5308
    3.120    9.2505
    3.255    9.6718
    3.390   12.8840
    3.525   13.6914
    3.660   19.8174
    3.795   43.0402
    3.930   13.1122
    4.065    8.3728
    4.200    8.9872
    4.335    7.7234
    4.470    7.4601
    4.605    7.6707
    4.740    7.8462
    4.875    8.5659
    5.010    8.4957
    5.145    9.7244
    5.280   12.1292
    5.415   19.5542
    5.550   11.3920
    5.685   10.0579
    5.820    8.9345
    5.955    8.2851
    6.090    7.9164
    6.225    7.6180
    6.360    6.8282
    6.495    7.2143
    6.630    8.4079
    6.765    9.4962
    6.900    6.4595
    7.035    6.0383
    7.170    6.2313
    7.305    5.9154
    7.440    5.7574
    7.575    5.5819
    7.710    6.7755
    7.845    5.6697
    7.980    4.9851
    8.115    5.4415
    8.250    5.1606
    8.385    4.9851
    8.520    5.0377
    8.655    5.3361
    8.790    5.4064
    8.925    5.0553
    9.060    4.7042
    9.195    4.8447
    9.330    5.1606
    9.465    7.9340
    9.600    6.1611
    9.735    4.4585
    9.870    4.8447
   10.005    4.9149
   10.140    5.0553
   10.275    7.0212
   10.410    4.7920
   10.545    4.1601
   10.680    5.0553
   10.815    5.0728
   10.950    5.8978
   11.085    5.9505
   11.220    5.1080
   11.355    4.8973
   11.490    4.5111
   11.625    6.0032
   11.760    5.9681
   11.895    4.7569
   12.030    4.8095
   12.165    4.4760
   12.300    4.7218
   12.435    5.0377
   12.570    4.5638
   12.705    4.9500
   12.840    4.9675
   12.975    6.3718
   13.110    4.3883
   13.245    4.5989
   13.380    4.6516
   13.515    5.2308
   13.650    4.7744
   13.785    4.6867
   13.920    4.8973
   14.055    6.3367
   14.190    4.7744
   14.325    4.9675
   14.460    4.9149
   14.595    4.8622
   14.730    4.4936
   14.865    4.5989
   15.000    4.5287
   15.135    4.9149
   15.270    4.3883
   15.405    4.4585
   15.540    4.4409
   15.675    4.5287
   15.810    4.5814
   15.945    4.4936
   16.080    4.8973
   16.215    4.3181
   16.350    4.7042
   16.485    4.3181
   16.620    4.9500
   16.755    4.7744
   16.890    4.8973
   17.025    5.4415
   17.160    4.8447
   17.295    4.5463
   17.430    4.1952
   17.565    4.4936
   17.700    4.3707
   17.835    4.8622
   17.970    4.5814
   18.105    4.3532
   18.240    4.3181
   18.375    4.8095
   18.510    4.6867
   18.645    4.4936
   18.780    4.1952
   18.915    4.3181
   19.050    4.3181
   19.185    4.2654
   19.320    4.7569
   19.455    4.5287
   19.590    4.5111
   19.725    4.1952
   19.860    3.9846
   19.995    4.2303
   20.130    4.4585
   20.265    4.1425
   20.400    5.0377
   20.535    4.0899
   20.670    3.5633
   20.805    4.2654
   20.940    4.1074
   21.075    3.7915
   21.210    4.0372
   21.345    4.0197
   21.480    3.8968
   21.615    3.8617
   21.750    3.9143
   21.885    4.5638
   22.020    3.9846
   22.155    3.5984
   22.290    3.9670
   22.425    3.9494
   22.560    5.2484
   22.695    3.6159
   22.830    4.1074
   22.965    4.4058
   23.100    3.8090
   23.235    4.0723
   23.370    3.2298
   23.505    3.5282
   23.640    3.6159
   23.775    3.2824
   23.910    3.5808
   24.045    3.5808
   24.180    3.2122
   24.315    3.0893
   24.450    3.3175
   24.585    3.5457
   24.720    3.4053
   24.855    3.5106
   24.990    3.3702
   25.125    3.2122
   25.260    3.5808
   25.395    3.5633
   25.530    3.6862
   25.665    3.0893
   25.800    3.8792
   25.935    3.1420
   26.070    3.4580
   26.205    3.2122
   26.340    3.2473
   26.475    2.9665
   26.610    3.1947
   26.745    2.8436
   26.880    2.8436
   27.015    3.2824
   27.150    2.9138
   27.285    2.7734
   27.420    2.6330
   27.555    2.9489
   27.690    3.0191
   27.825    2.7909
   27.960    2.9665
   28.095    3.0016
   28.230    3.3175
   28.365    2.8085
   28.500    3.0718
   28.635    2.5803
   28.770    2.7909
   28.905    3.1947
   29.040    3.0893
   29.175    2.7558
   29.310    3.3175
   29.445    2.7032
   29.580    2.3872
   29.715    2.5276
   29.850    2.6154
   29.985    2.4399
   30.120    2.6505
   30.255    2.8085
   30.390    2.4574
   30.525    2.2117
   30.660    2.7383
   30.795    2.3170
   30.930    2.4048
   31.065    2.6154
   31.200    2.0537
   31.335    2.5979
   31.470    2.4048
   31.605    2.1239
   31.740    2.3170
   31.875    2.4048
   32.010    2.2995
   32.145    2.4750
   32.280    2.0713
   32.415    2.3697
   32.550    2.4048
   32.685    2.0186
   32.820    2.1766
   32.955    2.1415
   33.090    2.1239
   33.225    1.8080
   33.360    1.9835
   33.495    1.8782
   33.630    2.1590
   33.765    2.4925
   33.900    2.2468
   34.035    2.1415
   34.170    2.1590
   34.305    2.1415
   34.440    2.1415
   34.575    2.2117
   34.710    2.0011
   34.845    1.8431
   34.980    1.8080
   35.115    1.9659
   35.250    1.9659
   35.385    2.0011
   35.520    1.7553
   35.655    1.9484
   35.790    2.2643
   35.925    1.8255
   36.060    1.9308
   36.195    2.3170
   36.330    2.1941
   36.465    1.9484
   36.600    2.0537
   36.735    2.1941
   36.870    1.8606
   37.005    2.3170
   37.140    1.8782
   37.275    1.9133
   37.410    1.7378
   37.545    2.1239
   37.680    2.0537
   37.815    1.9835
   37.950    2.1239
   38.085    1.7202
   38.220    1.9308
   38.355    2.0011
   38.490    1.8080
   38.625    2.1415
   38.760    2.0362
   38.895    1.7378
   39.030    2.0011
   39.165    2.0713
   39.300    1.9659
   39.435    1.7378
   39.570    1.7202
   39.705    1.8431
   39.840    1.7729
   39.975    1.6324
   39.990    1.8080