File: data/MOCOF-1/PXRD/PXRD_KE-042_Cu-Ka1_film-3mm_5s-deg.xyd
    1.500    9.1101
    1.635    8.7520
    1.770    7.9094
    1.905    7.5829
    2.040    7.2459
    2.175    6.9194
    2.310    6.3507
    2.445    6.5719
    2.580    6.5087
    2.715    6.2349
    2.850    6.2243
    2.985    6.1611
    3.120    6.3507
    3.255    6.2454
    3.390    7.1195
    3.525    7.6672
    3.660    6.0979
    3.795    6.4666
    3.930    6.5298
    4.065    5.9189
    4.200    5.9084
    4.335    5.5187
    4.470    5.8136
    4.605    5.9189
    4.740    6.0769
    4.875    6.3612
    5.010    6.4139
    5.145    6.5824
    5.280    7.3407
    5.415    7.7725
    5.550    8.3939
    5.685    8.0569
    5.820    7.0458
    5.955    6.6877
    6.090    6.1927
    6.225    5.8768
    6.360    5.4344
    6.495    5.3818
    6.630    5.3712
    6.765    5.4134
    6.900    5.7083
    7.035    4.8763
    7.170    4.8657
    7.305    4.6656
    7.440    4.2549
    7.575    4.2022
    7.710    3.9284
    7.845    4.1601
    7.980    4.0758
    8.115    4.2654
    8.250    4.0337
    8.385    3.7072
    8.520    3.8863
    8.655    3.4755
    8.790    3.2859
    8.925    3.4544
    9.060    3.5071
    9.195    3.2333
    9.330    3.2754
    9.465    3.5387
    9.600    3.1701
    9.735    3.4123
    9.870    3.5071
   10.005    3.4334
   10.140    3.4755
   10.275    3.4755
   10.410    3.4860
   10.545    3.2649
   10.680    3.6335
   10.815    3.6862
   10.950    3.6019
   11.085    3.6546
   11.220    3.5598
   11.355    3.2859
   11.490    3.7072
   11.625    3.4123
   11.760    3.5282
   11.895    3.6019
   12.030    3.6019
   12.165    3.2965
   12.300    3.5914
   12.435    3.3175
   12.570    3.5598
   12.705    3.4123
   12.840    3.3070
   12.975    3.0437
   13.110    3.4544
   13.245    3.4544
   13.380    3.2859
   13.515    3.4439
   13.650    3.7177
   13.785    3.0332
   13.920    3.3597
   14.055    3.5492
   14.190    3.5914
   14.325    3.6862
   14.460    3.7704
   14.595    3.8020
   14.730    3.8441
   14.865    3.3281
   15.000    3.5808
   15.135    3.4018
   15.270    3.2965
   15.405    3.3070
   15.540    3.4123
   15.675    2.9595
   15.810    3.1806
   15.945    3.1174
   16.080    3.2438
   16.215    3.1069
   16.350    3.4860
   16.485    3.0753
   16.620    3.3491
   16.755    3.2649
   16.890    3.1385
   17.025    3.1069
   17.160    3.1174
   17.295    3.0226
   17.430    3.2543
   17.565    3.2859
   17.700    3.0121
   17.835    3.1490
   17.970    3.0437
   18.105    3.1596
   18.240    3.0964
   18.375    3.0542
   18.510    3.3175
   18.645    3.1069
   18.780    3.2122
   18.915    2.9595
   19.050    3.0648
   19.185    3.1280
   19.320    2.9068
   19.455    3.0542
   19.590    3.1701
   19.725    2.7488
   19.860    3.1174
   19.995    2.9384
   20.130    2.9279
   20.265    2.8857
   20.400    2.6435
   20.535    2.9068
   20.670    2.6962
   20.805    2.6014
   20.940    2.8120
   21.075    2.8647
   21.210    2.8436
   21.345    3.1280
   21.480    2.7699
   21.615    2.6330
   21.750    2.6014
   21.885    2.5382
   22.020    2.6751
   22.155    2.6224
   22.290    2.6119
   22.425    2.6224
   22.560    2.6330
   22.695    2.6119
   22.830    2.6856
   22.965    2.4539
   23.100    2.4645
   23.235    2.6224
   23.370    2.4645
   23.505    2.3486
   23.640    2.3907
   23.775    2.3065
   23.910    2.4855
   24.045    2.0537
   24.180    2.2538
   24.315    2.2538
   24.450    2.2538
   24.585    2.2433
   24.720    2.0432
   24.855    2.3486
   24.990    2.3591
   25.125    2.3486
   25.260    2.2959
   25.395    2.3486
   25.530    1.9905
   25.665    2.0748
   25.800    2.2117
   25.935    2.3275
   26.070    2.0642
   26.205    2.2538
   26.340    2.0221
   26.475    2.1485
   26.610    2.1274
   26.745    1.9695
   26.880    1.9379
   27.015    2.0326
   27.150    1.8852
   27.285    1.7694
   27.420    1.9168
   27.555    1.8431
   27.690    1.8852
   27.825    1.8852
   27.960    1.9589
   28.095    1.6956
   28.230    1.8325
   28.365    1.7378
   28.500    1.7272
   28.635    1.9695
   28.770    1.8009
   28.905    1.7799
   29.040    1.9273
   29.175    1.8957
   29.310    1.8220
   29.445    1.5903
   29.580    1.7378
   29.715    1.4218
   29.850    1.4850
   29.985    1.4323
   30.120    1.5482
   30.255    1.4534
   30.390    1.5061
   30.525    1.3270
   30.660    1.6324
   30.795    1.4007
   30.930    1.7062
   31.065    1.4534
   31.200    1.5271
   31.335    1.1901
   31.470    1.4534
   31.605    1.3481
   31.740    1.3375
   31.875    1.3902
   32.010    1.1690
   32.145    1.1480
   32.280    1.3902
   32.415    1.3375
   32.550    1.2322
   32.685    1.3165
   32.820    1.3375
   32.955    1.1058
   33.090    1.2744
   33.225    1.1480
   33.360    1.3586
   33.495    1.2217
   33.630    1.3165
   33.765    1.1269
   33.900    1.1058
   34.035    1.2217
   34.170    1.1374
   34.305    1.2112
   34.440    1.2006
   34.575    1.1164
   34.710    1.0005
   34.845    1.1269
   34.980    1.2217
   35.115    1.0742
   35.250    1.0532
   35.385    1.1058
   35.520    1.1690
   35.655    1.2322
   35.790    1.0637
   35.925    1.0216
   36.060    1.1269
   36.195    1.1058
   36.330    0.9689
   36.465    1.1690
   36.600    1.0953
   36.735    1.0321
   36.870    1.1058
   37.005    1.1480
   37.140    0.9689
   37.275    1.1374
   37.410    0.9900
   37.545    1.0532
   37.680    0.9795
   37.815    0.9584
   37.950    0.9900
   38.085    1.0532
   38.220    1.0427
   38.355    1.0216
   38.490    0.9795
   38.625    0.9584
   38.760    0.9373
   38.895    1.1164
   39.030    1.0953
   39.165    0.9268
   39.300    0.8531
   39.435    0.9479
   39.570    0.9373
   39.705    0.9584
   39.840    0.9900
   39.975    0.9689
   39.990    1.0953