File: data/MOCOF-1/PXRD/PXRD_KE-339_Cu-Ka1_capillary-1mm_3s-deg_COF-366-Co.xyd
    1.500    2.5628
    1.665    2.1766
    1.830    1.9484
    1.995    1.9484
    2.160    1.7553
    2.325    1.8606
    2.490    1.8957
    2.655    2.2995
    2.820    2.9138
    2.985    4.6165
    3.150    7.1792
    3.315   12.3223
    3.480   13.9372
    3.645    5.6521
    3.810    6.7053
    3.975    7.7585
    4.140    6.0558
    4.305    3.6159
    4.470    1.9133
    4.635    1.6851
    4.800    1.4920
    4.965    1.5096
    5.130    1.1936
    5.295    1.2989
    5.460    1.3867
    5.625    1.0356
    5.790    1.1585
    5.955    1.0707
    6.120    1.1410
    6.285    0.9128
    6.450    1.2287
    6.615    1.2989
    6.780    1.6324
    6.945    2.8787
    7.110    1.5271
    7.275    1.3691
    7.440    0.9654
    7.605    0.8952
    7.770    1.2638
    7.935    1.4745
    8.100    1.5271
    8.265    1.4394
    8.430    1.4569
    8.595    1.6149
    8.760    1.2112
    8.925    0.9830
    9.090    1.0356
    9.255    1.0883
    9.420    1.1234
    9.585    1.1058
    9.750    0.9654
    9.915    1.1410
   10.080    1.0005
   10.245    1.1410
   10.410    1.1410
   10.575    1.0532
   10.740    0.9654
   10.905    1.0181
   11.070    1.0005
   11.235    1.1585
   11.400    0.6846
   11.565    0.9128
   11.730    1.0356
   11.895    1.0883
   12.060    1.1761
   12.225    1.0532
   12.390    1.0883
   12.555    1.1410
   12.720    1.0883
   12.885    0.8952
   13.050    0.9654
   13.215    1.0532
   13.380    1.2287
   13.545    0.9479
   13.710    1.0005
   13.875    0.8250
   14.040    1.0883
   14.205    1.0181
   14.370    0.9830
   14.535    0.8952
   14.700    1.1936
   14.865    1.0181
   15.030    1.1234
   15.195    0.8952
   15.360    0.8777
   15.525    0.7197
   15.690    0.8952
   15.855    0.8777
   16.020    0.8601
   16.185    1.0883
   16.350    0.9830
   16.515    1.2463
   16.680    1.0356
   16.845    0.9128
   17.010    1.0883
   17.175    0.8601
   17.340    1.0181
   17.505    1.2287
   17.670    0.9830
   17.835    1.0883
   18.000    1.0532
   18.165    0.8952
   18.330    0.9479
   18.495    0.9479
   18.660    1.0005
   18.825    0.9479
   18.990    0.9128
   19.155    1.0005
   19.320    1.0532
   19.485    1.1234
   19.650    0.9479
   19.815    1.0181
   19.980    1.0883
   20.145    1.1761
   20.310    1.0356
   20.475    0.9303
   20.640    1.0883
   20.805    0.9128
   20.970    0.8601
   21.135    0.9479
   21.300    0.9830
   21.465    0.9303
   21.630    0.9479
   21.795    1.1234
   21.960    1.2463
   22.125    1.2112
   22.290    0.9128
   22.455    0.8952
   22.620    0.9830
   22.785    0.9479
   22.950    0.9830
   23.115    0.9654
   23.280    1.1585
   23.445    1.0356
   23.610    1.0181
   23.775    1.0356
   23.940    0.8952
   24.105    0.8777
   24.270    0.6846
   24.435    0.9128
   24.600    1.0532
   24.765    1.1410
   24.930    0.9830
   25.095    0.8777
   25.260    1.0883
   25.425    1.0005
   25.590    0.8601
   25.755    1.0532
   25.920    0.9303
   26.085    1.0532
   26.250    0.8777
   26.415    0.8425
   26.580    0.8952
   26.745    0.8952
   26.910    0.8601
   27.075    0.9830
   27.240    0.9303
   27.405    1.0181
   27.570    0.7372
   27.735    0.8425
   27.900    0.8601
   28.065    0.8777
   28.230    1.1058
   28.395    0.8074
   28.560    0.8952
   28.725    0.8250
   28.890    0.8952
   29.055    0.8250
   29.220    0.8601
   29.385    0.8250
   29.550    0.9654
   29.715    0.8074
   29.880    0.8074
   30.045    0.7372
   30.210    0.8601
   30.375    0.8777
   30.540    0.7197
   30.705    0.5968
   30.870    0.7372
   31.035    0.7548
   31.200    0.6495
   31.365    0.8601
   31.530    0.7899
   31.695    0.7723
   31.860    0.6670
   32.025    0.8601
   32.190    0.6144
   32.355    0.6319
   32.520    0.8250
   32.685    0.7021
   32.850    0.8250
   33.015    0.7197
   33.180    0.9479
   33.345    0.7197
   33.510    0.5266
   33.675    0.6495
   33.840    0.6670
   34.005    0.6319
   34.170    0.6670
   34.335    0.7197
   34.500    0.7372
   34.665    0.6495
   34.830    0.5617
   34.995    0.5266
   35.160    0.6319
   35.325    0.5793
   35.490    0.5968
   35.655    0.7021
   35.820    0.5968
   35.985    0.5441
   36.150    0.6144
   36.315    0.5793
   36.480    0.5266
   36.645    0.5968
   36.810    0.5266
   36.975    0.5968
   37.140    0.5793
   37.305    0.5266
   37.470    0.4564
   37.635    0.4739
   37.800    0.6495
   37.965    0.6319
   38.130    0.5617
   38.295    0.4388
   38.460    0.4564
   38.625    0.4388
   38.790    0.5968
   38.955    0.5441
   39.120    0.5266
   39.285    0.4915
   39.450    0.5090
   39.615    0.5617
   39.780    0.5266
   39.945    0.4739
   40.110    0.5266
   40.275    0.5441
   40.440    0.4564
   40.605    0.5441
   40.770    0.4388
   40.935    0.5617
   41.100    0.4739
   41.265    0.5266
   41.430    0.3335
   41.595    0.4739
   41.760    0.4213
   41.925    0.5968
   42.090    0.6495
   42.255    0.4213
   42.420    0.5793
   42.585    0.5441
   42.750    0.5090
   42.915    0.5090
   43.080    0.4739
   43.245    0.4739
   43.410    0.6144
   43.575    0.4915
   43.740    0.4739
   43.905    0.5266
   44.070    0.4564
   44.235    0.3335
   44.400    0.4388
   44.565    0.3862
   44.730    0.4564
   44.895    0.5266
   45.060    0.4915
   45.225    0.5617
   45.390    0.4213
   45.555    0.3686
   45.720    0.5441
   45.885    0.4564
   46.050    0.4213
   46.215    0.4564
   46.380    0.4915
   46.545    0.5617
   46.710    0.5090
   46.875    0.4213
   47.040    0.5090
   47.205    0.4037
   47.370    0.4915
   47.535    0.4915
   47.700    0.4915
   47.865    0.3335
   48.030    0.3686
   48.195    0.5266
   48.360    0.4915
   48.525    0.3335
   48.690    0.4739
   48.855    0.4564
   49.020    0.3160
   49.185    0.4388
   49.350    0.4037
   49.515    0.4037
   49.680    0.4213
   49.845    0.6319
   49.980    0.3511