File: data/MOCOF-1/PXRD/PXRD_KE-285B_Cu-Ka1_film-3mm_3s-deg.xyd
    1.500   18.0972
    1.635   15.0079
    1.770   14.5515
    1.905   12.7084
    2.040   11.4095
    2.175   10.9531
    2.310   10.4265
    2.445    9.6542
    2.580    9.2856
    2.715    9.0223
    2.850    8.5133
    2.985    8.6888
    3.120    8.6010
    3.255    9.1627
    3.390    8.4781
    3.525    9.5664
    3.660   10.8478
    3.795   14.1302
    3.930   11.3744
    4.065    8.0744
    4.200    8.4957
    4.335    8.5308
    4.470    8.2149
    4.605    8.5484
    4.740    8.4079
    4.875    8.7414
    5.010    8.3553
    5.145    9.0047
    5.280   10.0579
    5.415   12.4978
    5.550   11.3393
    5.685   10.7074
    5.820    8.7239
    5.955    8.8468
    6.090    8.3377
    6.225    7.3899
    6.360    7.9164
    6.495    7.4601
    6.630    7.6707
    6.765    7.7234
    6.900    6.8984
    7.035    7.0037
    7.170    6.9159
    7.305    6.4244
    7.440    5.6345
    7.575    6.3893
    7.710    6.0558
    7.845    5.8276
    7.980    5.3888
    8.115    5.5468
    8.250    5.5468
    8.385    5.4590
    8.520    5.3010
    8.655    5.0202
    8.790    4.9851
    8.925    5.4766
    9.060    4.9500
    9.195    4.8973
    9.330    5.1957
    9.465    5.1080
    9.600    5.1080
    9.735    4.8271
    9.870    4.5814
   10.005    5.1255
   10.140    5.3361
   10.275    5.4766
   10.410    5.5468
   10.545    5.5819
   10.680    5.0904
   10.815    5.1255
   10.950    5.4239
   11.085    5.4766
   11.220    5.5117
   11.355    5.1957
   11.490    5.5292
   11.625    5.2133
   11.760    5.2659
   11.895    4.6691
   12.030    4.9851
   12.165    5.1255
   12.300    5.0026
   12.435    5.1957
   12.570    4.8271
   12.705    5.1782
   12.840    4.8271
   12.975    5.0553
   13.110    4.7393
   13.245    4.4936
   13.380    5.2133
   13.515    5.3537
   13.650    4.8622
   13.785    5.2308
   13.920    5.2308
   14.055    5.4239
   14.190    5.4766
   14.325    4.7393
   14.460    5.2484
   14.595    5.3186
   14.730    5.3186
   14.865    5.5117
   15.000    4.8973
   15.135    4.7218
   15.270    4.7218
   15.405    4.5989
   15.540    4.7920
   15.675    4.4058
   15.810    4.3356
   15.945    4.6867
   16.080    4.7218
   16.215    4.6340
   16.350    4.9149
   16.485    5.3010
   16.620    4.6691
   16.755    4.2478
   16.890    4.7218
   17.025    5.0377
   17.160    4.7218
   17.295    4.5287
   17.430    5.1431
   17.565    4.8447
   17.700    4.7218
   17.835    4.8447
   17.970    4.1601
   18.105    4.5989
   18.240    4.6340
   18.375    4.5463
   18.510    4.4234
   18.645    4.5111
   18.780    4.6516
   18.915    5.0728
   19.050    4.7744
   19.185    4.4585
   19.320    4.3707
   19.455    4.1074
   19.590    4.6340
   19.725    4.3532
   19.860    4.2654
   19.995    4.0899
   20.130    4.2303
   20.265    4.5463
   20.400    4.0372
   20.535    4.4409
   20.670    4.2127
   20.805    3.8441
   20.940    3.9494
   21.075    3.5808
   21.210    4.3707
   21.345    3.8617
   21.480    4.4409
   21.615    4.4234
   21.750    3.7739
   21.885    3.9846
   22.020    4.1601
   22.155    3.7915
   22.290    3.9670
   22.425    3.8968
   22.560    3.9670
   22.695    4.4760
   22.830    4.1776
   22.965    4.0197
   23.100    3.7739
   23.235    3.6686
   23.370    3.8792
   23.505    3.1947
   23.640    3.6335
   23.775    3.9319
   23.910    3.4053
   24.045    3.4580
   24.180    3.0718
   24.315    3.6510
   24.450    3.3351
   24.585    3.4229
   24.720    3.1596
   24.855    3.1947
   24.990    3.6159
   25.125    3.2473
   25.260    3.2122
   25.395    3.1596
   25.530    3.3877
   25.665    3.0367
   25.800    3.5984
   25.935    3.2473
   26.070    2.9665
   26.205    3.0893
   26.340    3.0718
   26.475    3.0893
   26.610    2.8085
   26.745    3.0718
   26.880    3.0191
   27.015    3.2649
   27.150    2.8612
   27.285    2.8436
   27.420    3.1069
   27.555    3.0718
   27.690    2.8085
   27.825    3.1420
   27.960    3.4229
   28.095    3.0542
   28.230    3.0191
   28.365    2.6856
   28.500    3.0016
   28.635    2.9665
   28.770    3.1947
   28.905    3.0718
   29.040    2.6856
   29.175    2.7032
   29.310    3.1420
   29.445    2.8085
   29.580    2.7383
   29.715    2.2468
   29.850    2.6505
   29.985    2.6856
   30.120    2.1590
   30.255    2.5101
   30.390    2.3170
   30.525    2.5979
   30.660    2.5803
   30.795    2.2819
   30.930    2.4750
   31.065    2.0537
   31.200    2.4223
   31.335    2.3521
   31.470    2.1239
   31.605    2.5452
   31.740    2.3346
   31.875    2.0713
   32.010    2.1766
   32.145    2.3346
   32.280    2.1415
   32.415    2.1239
   32.550    2.1415
   32.685    2.3697
   32.820    2.0888
   32.955    1.9835
   33.090    2.0011
   33.225    1.9308
   33.360    1.9133
   33.495    1.9659
   33.630    2.0713
   33.765    1.7202
   33.900    1.9835
   34.035    2.0713
   34.170    2.0537
   34.305    1.9835
   34.440    2.0011
   34.575    2.0186
   34.710    2.0537
   34.845    1.9133
   34.980    1.7027
   35.115    1.7904
   35.250    1.8606
   35.385    2.0362
   35.520    1.8957
   35.655    1.6149
   35.790    1.7027
   35.925    2.0537
   36.060    1.8255
   36.195    2.1415
   36.330    1.8957
   36.465    1.7202
   36.600    1.8782
   36.735    1.8606
   36.870    2.1941
   37.005    1.7378
   37.140    2.0362
   37.275    1.5973
   37.410    1.8255
   37.545    1.6851
   37.680    2.0537
   37.815    1.9659
   37.950    1.8080
   38.085    2.0011
   38.220    1.7027
   38.355    1.9484
   38.490    1.6500
   38.625    1.5973
   38.760    1.7904
   38.895    1.6675
   39.030    1.7553
   39.165    1.7378
   39.300    1.7553
   39.435    1.7729
   39.570    1.6675
   39.705    1.5096
   39.840    1.5622
   39.975    1.7904
   39.990    1.5622