File: data/MOCOF-1/PXRD/PXRD_KE-181_Cu-Ka1_capillary-1mm_5s-deg.xyd
    1.500   19.9789
    1.635   17.2407
    1.770   15.2291
    1.905   13.0068
    2.040   11.9221
    2.175   10.5003
    2.310    9.9947
    2.445    8.8889
    2.580    8.2254
    2.715    7.9831
    2.850    7.6988
    2.985    8.6361
    3.120    9.9947
    3.255   13.4808
    3.390   21.8536
    3.525   36.7983
    3.660   68.2359
    3.795  160.2212
    3.930  228.0569
    4.065    8.0779
    4.200    5.6451
    4.335    5.2238
    4.470    4.9816
    4.605    5.1501
    4.740    5.1501
    4.875    4.7709
    5.010    5.2659
    5.145    6.4034
    5.280   10.5108
    5.415   22.1696
    5.550   34.8710
    5.685    5.2027
    5.820    4.2022
    5.955    4.2233
    6.090    4.1074
    6.225    4.2233
    6.360    4.7604
    6.495    4.2970
    6.630    4.7499
    6.765    5.9610
    6.900    4.2654
    7.035    4.5182
    7.170    4.3497
    7.305    4.2022
    7.440    4.4234
    7.575    5.7399
    7.710    9.0995
    7.845   16.2507
    7.980    4.7604
    8.115    4.4550
    8.250    4.2338
    8.385    3.7915
    8.520    4.3181
    8.655    5.1185
    8.790    5.4450
    8.925    4.0653
    9.060    4.0548
    9.195    4.0758
    9.330    4.6130
    9.465    8.3096
    9.600   20.2633
    9.735    3.9705
    9.870    3.8547
   10.005    4.0548
   10.140    4.1706
   10.275    6.4244
   10.410    6.3191
   10.545    3.9600
   10.680    4.3391
   10.815    4.1496
   10.950    5.5398
   11.085   11.1743
   11.220    3.8863
   11.355    3.7493
   11.490    4.0653
   11.625    4.7499
   11.760   11.2796
   11.895    4.0653
   12.030    3.7599
   12.165    3.8863
   12.300    4.2759
   12.435    4.2338
   12.570    3.6124
   12.705    3.9073
   12.840    3.9073
   12.975    9.0679
   13.110    3.8757
   13.245    3.7388
   13.380    3.6967
   13.515    5.3712
   13.650    4.2970
   13.785    3.7915
   13.920    3.8757
   14.055    5.4239
   14.190    5.7609
   14.325    3.6546
   14.460    3.7809
   14.595    3.6756
   14.730    3.6967
   14.865    3.6019
   15.000    4.0232
   15.135    4.7499
   15.270    4.3707
   15.405    3.7809
   15.540    3.5703
   15.675    3.6230
   15.810    3.5808
   15.945    3.8125
   16.080    4.1811
   16.215    4.8973
   16.350    3.7809
   16.485    3.5071
   16.620    5.7925
   16.755    3.7704
   16.890    4.0548
   17.025    4.4655
   17.160    5.9610
   17.295    3.9284
   17.430    3.9073
   17.565    4.4655
   17.700    3.6862
   17.835    3.9284
   17.970    4.6972
   18.105    3.8757
   18.240    3.6440
   18.375    4.2759
   18.510    3.7599
   18.645    4.1917
   18.780    4.0442
   18.915    4.1706
   19.050    3.6862
   19.185    3.6651
   19.320    4.1074
   19.455    3.6756
   19.590    5.0026
   19.725    4.5287
   19.860    3.7177
   19.995    3.9810
   20.130    3.7283
   20.265    3.9179
   20.400    6.5929
   20.535    4.2127
   20.670    3.8336
   20.805    4.0232
   20.940    3.8020
   21.075    3.9073
   21.210    3.8231
   21.345    3.7599
   21.480    3.7388
   21.615    3.5598
   21.750    4.0548
   21.885    5.0342
   22.020    4.1390
   22.155    4.0337
   22.290    4.6761
   22.425    3.8020
   22.560    5.4871
   22.695    5.5924
   22.830    4.4760
   22.965    8.2464
   23.100    4.2443
   23.235    4.5919
   23.370    4.6551
   23.505    3.9810
   23.640    3.9916
   23.775    3.4966
   23.910    4.6761
   24.045    4.6130
   24.180    3.9073
   24.315    4.1180
   24.450    3.5492
   24.585    4.1074
   24.720    3.7177
   24.855    3.6124
   24.990    4.0021
   25.125    3.7388
   25.260    4.5287
   25.395    3.6651
   25.530    4.0337
   25.665    3.8547
   25.800    4.7288
   25.935    5.6872
   26.070    3.5703
   26.205    4.0758
   26.340    3.6862
   26.475    4.4550
   26.610    3.6967
   26.745    3.5914
   26.880    3.4439
   27.015    4.2865
   27.150    4.3918
   27.285    3.9073
   27.420    3.8863
   27.555    3.5703
   27.690    4.3918
   27.825    3.5808
   27.960    4.1180
   28.095    3.6862
   28.230    4.4128
   28.365    3.8863
   28.500    4.3707
   28.635    3.7177
   28.770    3.5808
   28.905    3.5387
   29.040    3.7809
   29.175    3.4650
   29.310    4.3286
   29.445    3.6230
   29.580    3.5492
   29.715    3.3175
   29.850    3.8125
   29.985    3.8757
   30.120    3.4755
   30.255    3.6862
   30.390    3.5176
   30.525    3.4334
   30.660    3.6967
   30.795    3.5071
   30.930    3.5071
   31.065    3.3281
   31.200    3.3070
   31.335    3.3386
   31.470    3.8441
   31.605    3.4018
   31.740    3.5387
   31.875    3.2227
   32.010    3.4018
   32.145    3.2122
   32.280    3.4439
   32.415    3.2859
   32.550    3.5387
   32.685    2.9910
   32.820    3.0964
   32.955    3.5387
   33.090    3.0858
   33.225    3.4334
   33.360    3.3070
   33.495    3.3491
   33.630    3.4123
   33.765    3.1912
   33.900    3.4966
   34.035    3.4229
   34.170    3.1596
   34.305    3.1912
   34.440    3.4334
   34.575    2.9279
   34.710    3.2543
   34.845    3.3807
   34.980    3.2227
   35.115    3.0753
   35.250    3.0332
   35.385    3.1385
   35.520    3.1701
   35.655    3.1069
   35.790    3.0964
   35.925    3.3281
   36.060    3.2754
   36.195    2.9489
   36.330    3.1806
   36.465    3.0858
   36.600    3.1280
   36.735    3.1280
   36.870    2.7488
   37.005    3.1174
   37.140    3.4229
   37.275    3.1280
   37.410    3.1174
   37.545    3.0332
   37.680    2.9805
   37.815    3.2438
   37.950    3.0437
   38.085    3.1490
   38.220    3.0437
   38.355    3.0437
   38.490    3.1174
   38.625    3.0016
   38.760    2.8331
   38.895    2.8647
   39.030    3.2227
   39.165    2.8963
   39.300    2.8541
   39.435    3.4018
   39.570    3.2333
   39.705    3.1280
   39.840    2.9910
   39.975    3.0121
   39.990    2.8752