File: data/MOCOF-1/PXRD/PXRD_KE-053-4_Cu-Ka1_capillary-0.5mm_5s-deg.xyd
    1.500   30.3949
    1.635   27.1301
    1.770   24.4286
    1.905   21.7694
    2.040   19.6367
    2.175   18.3412
    2.310   17.4460
    2.445   16.8562
    2.580   16.6561
    2.715   16.2296
    2.850   16.8878
    2.985   17.6514
    3.120   19.6735
    3.255   22.7593
    3.390   26.4244
    3.525   34.1601
    3.660   45.1343
    3.795   71.9695
    3.930  152.7436
    4.065   11.6482
    4.200    9.3944
    4.335    8.5255
    4.470    8.1727
    4.605    8.0095
    4.740    8.3518
    4.875    8.6361
    5.010    9.8894
    5.145   10.7056
    5.280   13.1859
    5.415   19.5629
    5.550   39.1838
    5.685    7.4671
    5.820    6.9405
    5.955    6.7983
    6.090    7.0563
    6.225    7.0458
    6.360    7.3407
    6.495    7.9726
    6.630    9.3523
    6.765   15.5766
    6.900    6.9721
    7.035    6.6877
    7.170    6.7088
    7.305    6.7878
    7.440    6.6509
    7.575    7.3670
    7.710    8.6203
    7.845   13.3913
    7.980    6.6877
    8.115    6.3876
    8.250    6.5034
    8.385    6.4034
    8.520    6.5561
    8.655    6.8404
    8.790    6.8720
    8.925    6.5192
    9.060    6.6035
    9.195    7.1775
    9.330    7.5145
    9.465   10.1106
    9.600   21.7062
    9.735    6.8720
    9.870    6.5034
   10.005    6.3454
   10.140    6.9984
   10.275    8.1359
   10.410    9.7946
   10.545    6.2770
   10.680    6.2665
   10.815    6.3296
   10.950    7.3144
   11.085   10.9689
   11.220    6.0664
   11.355    6.2507
   11.490    6.3454
   11.625    7.2722
   11.760   11.5692
   11.895    5.9400
   12.030    5.7504
   12.165    5.8083
   12.300    5.6925
   12.435    6.4613
   12.570    5.5714
   12.705    5.7451
   12.840    6.2928
   12.975    7.8936
   13.110    5.7767
   13.245    5.4502
   13.380    6.0190
   13.515    6.4508
   13.650    5.9926
   13.785    5.7030
   13.920    5.9347
   14.055    6.5140
   14.190    7.2880
   14.325    5.6609
   14.460    5.3397
   14.595    5.2923
   14.730    5.5977
   14.865    5.4818
   15.000    5.6240
   15.135    5.5977
   15.270    5.6503
   15.405    5.1869
   15.540    5.4292
   15.675    5.2712
   15.810    5.2133
   15.945    5.6556
   16.080    5.5714
   16.215    6.0506
   16.350    5.4186
   16.485    5.3818
   16.620    5.8083
   16.755    5.6451
   16.890    5.5977
   17.025    6.1875
   17.160    7.2407
   17.295    5.4608
   17.430    5.6503
   17.565    5.9926
   17.700    5.4713
   17.835    5.5345
   17.970    5.6135
   18.105    5.6187
   18.240    5.3555
   18.375    5.6451
   18.510    5.7293
   18.645    5.4081
   18.780    5.6977
   18.915    5.6293
   19.050    5.2712
   19.185    5.4871
   19.320    5.5450
   19.455    5.6609
   19.590    5.8136
   19.725    5.7873
   19.860    5.5029
   19.995    5.6819
   20.130    5.5977
   20.265    5.4818
   20.400    6.3981
   20.535    5.7451
   20.670    5.2554
   20.805    5.4818
   20.940    5.6029
   21.075    5.4976
   21.210    5.6767
   21.345    5.6345
   21.480    5.3397
   21.615    5.5134
   21.750    5.4924
   21.885    5.9979
   22.020    5.6398
   22.155    5.7135
   22.290    5.7873
   22.425    5.5187
   22.560    6.0400
   22.695    6.7193
   22.830    5.6556
   22.965    7.6672
   23.100    5.9926
   23.235    5.5187
   23.370    5.8610
   23.505    5.5187
   23.640    5.6345
   23.775    5.4239
   23.910    5.7715
   24.045    5.7820
   24.180    5.2554
   24.315    5.7346
   24.450    5.2449
   24.585    5.3555
   24.720    5.4766
   24.855    5.2501
   24.990    5.4713
   25.125    5.2291
   25.260    5.7978
   25.395    5.3923
   25.530    5.4660
   25.665    5.3449
   25.800    5.5292
   25.935    6.5666
   26.070    5.3607
   26.205    5.4239
   26.340    5.3239
   26.475    5.6240
   26.610    5.2765
   26.745    5.0869
   26.880    5.0869
   27.015    5.2185
   27.150    5.2554
   27.285    5.1080
   27.420    5.2343
   27.555    4.8552
   27.690    5.4081
   27.825    4.9974
   27.960    5.1764
   28.095    5.1553
   28.230    5.4134
   28.365    4.8289
   28.500    5.3555
   28.635    5.2975
   28.770    4.9500
   28.905    4.8973
   29.040    5.0553
   29.175    4.9816
   29.310    4.9605
   29.445    4.9500
   29.580    4.9710
   29.715    4.7973
   29.850    4.8552
   29.985    4.8078
   30.120    4.7130
   30.255    4.6551
   30.390    4.7077
   30.525    4.5340
   30.660    4.8236
   30.795    4.7446
   30.930    4.7815
   31.065    4.4602
   31.200    4.3075
   31.335    4.5761
   31.470    4.9658
   31.605    4.4971
   31.740    4.3602
   31.875    4.3971
   32.010    4.8499
   32.145    4.2338
   32.280    4.1811
   32.415    4.5392
   32.550    4.3286
   32.685    4.3813
   32.820    4.4497
   32.955    4.3181
   33.090    4.3760
   33.225    4.2917
   33.360    4.1390
   33.495    4.2443
   33.630    4.1917
   33.765    4.3181
   33.900    4.5024
   34.035    4.0864
   34.170    4.4813
   34.305    4.1917
   34.440    4.1548
   34.575    4.1390
   34.710    4.2443
   34.845    3.8441
   34.980    4.1811
   35.115    3.9442
   35.250    4.0758
   35.385    4.0179
   35.520    3.9126
   35.655    4.0706
   35.790    4.0390
   35.925    4.0074
   36.060    4.0126
   36.195    4.0126
   36.330    4.3444
   36.465    3.8810
   36.600    3.7072
   36.735    4.0284
   36.870    4.0600
   37.005    3.6862
   37.140    3.9547
   37.275    3.8494
   37.410    3.6124
   37.545    3.6862
   37.680    3.5018
   37.815    3.8494
   37.950    3.8231
   38.085    4.0495
   38.220    3.6177
   38.355    3.6019
   38.490    3.7072
   38.625    3.4597
   38.760    3.7177
   38.895    3.7230
   39.030    3.5914
   39.165    3.6967
   39.300    3.6493
   39.435    3.8073
   39.570    3.6230
   39.705    3.7546
   39.840    3.6388
   39.975    3.7177
   39.990    3.7177