File: data/MOCOF-1/PXRD/PXRD_KE-242-3_Cu-Ka1_capillary-1mm_3s-deg.xyd
    1.500   51.5710
    1.635   43.1455
    1.770   34.6674
    1.905   29.8754
    2.040   24.6270
    2.175   21.1164
    2.310   19.4137
    2.445   16.9563
    2.580   15.4467
    2.715   14.2005
    2.850   14.3233
    2.985   13.6739
    3.120   14.4111
    3.255   17.4302
    3.390   22.7839
    3.525   35.1237
    3.660   61.5587
    3.795  149.4120
    3.930   44.7077
    4.065   11.4446
    4.200    9.1978
    4.335    8.9521
    4.470    8.1973
    4.605    7.7234
    4.740    7.9691
    4.875    7.4776
    5.010    8.6010
    5.145    9.0750
    5.280   13.7441
    5.415   28.1376
    5.550   14.3760
    5.685    7.3899
    5.820    6.9159
    5.955    6.8282
    6.090    6.6702
    6.225    6.6000
    6.360    6.4595
    6.495    6.5473
    6.630    8.0744
    6.765    8.6712
    6.900    6.5649
    7.035    6.3893
    7.170    6.9510
    7.305    6.6702
    7.440    6.9861
    7.575    7.6707
    7.710   13.6739
    7.845   10.3212
    7.980    6.8984
    8.115    7.3372
    8.250    6.8984
    8.385    6.9686
    8.520    7.3723
    8.655    8.3904
    8.790    7.5478
    8.925    6.7228
    9.060    6.8106
    9.195    6.9510
    9.330    7.8287
    9.465   11.9712
    9.600   11.6026
    9.735    6.6702
    9.870    6.7404
   10.005    7.4601
   10.140    7.6005
   10.275   10.3914
   10.410    7.6883
   10.545    6.3191
   10.680    6.7053
   10.815    6.7053
   10.950    8.3553
   11.085    8.9345
   11.220    6.1436
   11.355    6.4595
   11.490    6.2665
   11.625    8.3026
   11.760    9.2329
   11.895    6.4946
   12.030    6.1787
   12.165    5.9856
   12.300    6.3367
   12.435    5.7399
   12.570    6.2138
   12.705    6.3893
   12.840    6.5824
   12.975    8.8117
   13.110    6.4595
   13.245    6.0734
   13.380    6.5298
   13.515    7.4074
   13.650    5.8101
   13.785    5.4415
   13.920    5.8978
   14.055    8.1271
   14.190    6.2138
   14.325    5.6170
   14.460    5.9154
   14.595    5.2133
   14.730    5.4239
   14.865    6.1436
   15.000    5.5819
   15.135    6.8808
   15.270    5.7925
   15.405    6.0383
   15.540    6.3367
   15.675    5.8803
   15.810    6.2313
   15.945    5.6345
   16.080    6.4595
   16.215    6.1962
   16.350    5.8452
   16.485    6.0734
   16.620    7.1441
   16.755    5.7223
   16.890    5.8627
   17.025    7.4952
   17.160    6.7228
   17.295    6.4244
   17.430    6.2665
   17.565    6.8106
   17.700    6.0734
   17.835    5.8276
   17.970    6.2665
   18.105    5.7399
   18.240    6.2313
   18.375    6.8282
   18.510    6.0909
   18.645    6.3893
   18.780    6.5649
   18.915    6.4771
   19.050    5.7925
   19.185    6.2313
   19.320    6.1611
   19.455    6.0032
   19.590    7.0563
   19.725    5.6345
   19.860    6.0383
   19.995    6.5473
   20.130    5.8452
   20.265    6.6175
   20.400    8.0569
   20.535    6.1962
   20.670    5.3361
   20.805    6.7053
   20.940    6.0207
   21.075    6.1787
   21.210    6.2665
   21.345    6.1787
   21.480    5.9681
   21.615    6.0207
   21.750    5.7399
   21.885    6.4420
   22.020    6.1611
   22.155    6.3893
   22.290    6.4420
   22.425    5.9856
   22.560    7.8287
   22.695    6.8633
   22.830    6.8457
   22.965    8.8117
   23.100    6.3542
   23.235    7.1441
   23.370    6.6526
   23.505    5.7399
   23.640    6.4595
   23.775    5.3537
   23.910    6.6175
   24.045    6.3191
   24.180    6.2138
   24.315    6.2840
   24.450    5.8276
   24.585    6.3191
   24.720    5.7399
   24.855    5.9681
   24.990    5.6697
   25.125    5.5292
   25.260    5.7750
   25.395    6.1787
   25.530    6.3542
   25.665    5.7223
   25.800    7.4250
   25.935    6.2138
   26.070    5.8803
   26.205    5.8276
   26.340    6.0032
   26.475    6.6351
   26.610    5.8452
   26.745    5.5292
   26.880    6.1611
   27.015    6.2138
   27.150    5.5643
   27.285    5.6345
   27.420    5.5117
   27.555    6.4420
   27.690    5.9681
   27.825    5.5819
   27.960    5.6872
   28.095    6.1962
   28.230    6.0207
   28.365    5.6170
   28.500    6.0558
   28.635    5.4590
   28.770    5.1782
   28.905    5.6872
   29.040    5.7399
   29.175    5.6170
   29.310    5.7750
   29.445    5.6521
   29.580    5.2659
   29.715    4.8447
   29.850    5.4590
   29.985    5.4239
   30.120    5.2484
   30.255    5.4064
   30.390    5.7574
   30.525    5.0202
   30.660    5.2835
   30.795    5.0728
   30.930    5.1606
   31.065    4.9500
   31.200    5.3712
   31.335    5.5643
   31.470    5.8452
   31.605    5.5117
   31.740    4.9149
   31.875    5.1957
   32.010    5.2133
   32.145    5.2835
   32.280    5.7574
   32.415    5.3712
   32.550    4.9851
   32.685    4.8973
   32.820    5.4766
   32.955    5.1782
   33.090    4.9675
   33.225    4.7218
   33.360    5.0377
   33.495    4.9851
   33.630    4.8798
   33.765    4.9324
   33.900    5.0377
   34.035    5.4064
   34.170    5.4064
   34.305    4.8798
   34.440    5.0728
   34.575    4.9324
   34.710    5.1255
   34.845    4.9324
   34.980    4.5287
   35.115    4.9851
   35.250    4.4936
   35.385    4.8622
   35.520    4.5638
   35.655    4.9149
   35.790    5.0728
   35.925    5.1957
   36.060    4.5989
   36.195    4.9500
   36.330    4.9324
   36.465    5.2308
   36.600    4.7393
   36.735    4.6340
   36.870    4.8095
   37.005    4.5814
   37.140    4.8973
   37.275    4.8447
   37.410    4.7569
   37.545    4.8271
   37.680    4.7569
   37.815    4.7218
   37.950    4.8271
   38.085    4.4234
   38.220    4.8095
   38.355    4.8622
   38.490    4.5814
   38.625    4.2303
   38.760    4.6516
   38.895    4.7744
   39.030    4.7393
   39.165    4.5989
   39.300    4.4234
   39.435    4.9324
   39.570    5.2308
   39.705    4.5463
   39.840    4.3005
   39.975    4.3532
   39.990    4.2127