File: data/MOCOF-1/PXRD/PXRD_KE-026_Cu-Ka1_capillary-1mm_5s-deg.xyd
    1.500   14.7973
    1.635   12.7857
    1.770    9.9842
    1.905    9.3523
    2.040    7.8252
    2.175    7.0563
    2.310    6.2770
    2.445    5.9926
    2.580    5.2554
    2.715    5.3607
    2.850    5.4239
    2.985    5.1185
    3.120    5.0658
    3.255    5.1290
    3.390    6.1822
    3.525    6.3928
    3.660    6.2243
    3.795    5.5819
    3.930    5.0237
    4.065    4.8447
    4.200    4.5603
    4.335    4.3497
    4.470    4.6235
    4.605    4.1706
    4.740    3.8968
    4.875    4.3075
    5.010    4.1917
    5.145    4.3286
    5.280    4.1601
    5.415    4.4128
    5.550    4.1601
    5.685    4.1601
    5.820    3.7493
    5.955    4.0126
    6.090    4.1074
    6.225    4.0653
    6.360    3.8441
    6.495    3.8231
    6.630    3.7704
    6.765    4.4339
    6.900    4.6024
    7.035    4.8236
    7.170    4.7077
    7.305    5.4766
    7.440    5.4028
    7.575    5.1606
    7.710    4.8341
    7.845    4.4866
    7.980    4.3918
    8.115    3.9284
    8.250    3.3386
    8.385    3.7493
    8.520    3.5176
    8.655    3.3597
    8.790    3.4860
    8.925    3.3175
    9.060    3.3070
    9.195    3.2017
    9.330    3.0858
    9.465    3.3491
    9.600    3.4650
    9.735    3.4123
    9.870    3.3070
   10.005    3.2965
   10.140    3.5914
   10.275    3.0858
   10.410    3.2333
   10.545    3.0437
   10.680    3.7493
   10.815    3.2122
   10.950    3.2965
   11.085    3.5071
   11.220    3.2122
   11.355    3.5176
   11.490    3.6756
   11.625    3.5598
   11.760    3.5703
   11.895    3.2859
   12.030    3.3175
   12.165    3.3807
   12.300    3.4018
   12.435    3.6967
   12.570    3.5387
   12.705    3.2543
   12.840    3.1701
   12.975    3.2965
   13.110    3.5282
   13.245    3.4650
   13.380    3.2017
   13.515    2.8963
   13.650    3.1280
   13.785    3.2965
   13.920    3.0648
   14.055    3.1385
   14.190    3.4439
   14.325    3.0753
   14.460    3.2754
   14.595    3.5492
   14.730    3.4544
   14.865    3.3386
   15.000    3.2965
   15.135    3.5176
   15.270    3.4334
   15.405    3.2122
   15.540    3.4860
   15.675    3.2965
   15.810    3.2017
   15.945    3.5387
   16.080    3.6335
   16.215    3.3597
   16.350    3.7809
   16.485    3.4018
   16.620    3.4229
   16.755    3.4966
   16.890    3.3702
   17.025    3.2017
   17.160    3.2438
   17.295    3.2859
   17.430    3.2965
   17.565    3.4860
   17.700    3.5914
   17.835    3.7283
   17.970    3.7493
   18.105    3.9916
   18.240    4.1601
   18.375    4.1601
   18.510    3.8441
   18.645    3.8020
   18.780    3.9179
   18.915    3.9284
   19.050    3.6967
   19.185    3.8547
   19.320    3.8968
   19.455    3.8547
   19.590    3.3913
   19.725    3.8441
   19.860    3.5387
   19.995    3.7915
   20.130    3.6019
   20.265    3.6756
   20.400    3.8125
   20.535    3.7072
   20.670    3.6230
   20.805    3.4544
   20.940    3.8336
   21.075    3.6230
   21.210    3.9073
   21.345    3.7283
   21.480    3.7283
   21.615    4.1285
   21.750    3.9073
   21.885    3.8336
   22.020    4.1074
   22.155    4.1180
   22.290    3.5598
   22.425    3.9389
   22.560    3.4966
   22.695    3.7388
   22.830    3.6651
   22.965    3.6019
   23.100    3.4755
   23.235    3.6230
   23.370    3.6440
   23.505    3.6335
   23.640    3.9600
   23.775    3.6440
   23.910    3.8968
   24.045    3.4334
   24.180    3.7599
   24.315    3.6756
   24.450    3.5176
   24.585    3.5492
   24.720    3.5176
   24.855    3.9073
   24.990    3.6546
   25.125    3.5492
   25.260    3.5071
   25.395    3.7177
   25.530    3.2965
   25.665    3.4229
   25.800    3.4966
   25.935    3.3281
   26.070    3.5492
   26.205    3.2859
   26.340    3.3702
   26.475    3.2333
   26.610    3.3175
   26.745    3.2859
   26.880    3.0648
   27.015    3.0542
   27.150    2.9173
   27.285    3.0121
   27.420    2.9910
   27.555    2.9489
   27.690    3.0016
   27.825    3.0226
   27.960    2.9805
   28.095    2.8120
   28.230    2.6646
   28.365    2.9700
   28.500    2.9384
   28.635    2.7593
   28.770    2.9805
   28.905    2.7804
   29.040    3.0226
   29.175    3.0016
   29.310    2.8963
   29.445    2.8331
   29.580    2.9068
   29.715    2.7383
   29.850    2.7804
   29.985    2.6856
   30.120    2.8225
   30.255    2.7488
   30.390    2.6330
   30.525    2.8015
   30.660    2.6540
   30.795    2.6330
   30.930    2.5487
   31.065    2.5803
   31.200    2.5592
   31.335    2.3486
   31.470    2.3802
   31.605    2.5803
   31.740    2.2538
   31.875    2.5276
   32.010    2.4961
   32.145    2.3591
   32.280    2.1169
   32.415    2.0958
   32.550    2.3697
   32.685    2.2854
   32.820    2.2117
   32.955    2.2117
   33.090    2.2117
   33.225    2.0537
   33.360    2.0432
   33.495    2.0642
   33.630    1.8747
   33.765    2.0011
   33.900    1.7694
   34.035    2.1169
   34.170    1.9695
   34.305    2.0326
   34.440    1.9589
   34.575    1.8641
   34.710    1.8957
   34.845    1.7588
   34.980    1.7588
   35.115    1.9168
   35.250    1.8641
   35.385    1.7272
   35.520    1.5377
   35.655    1.6956
   35.790    1.7799
   35.925    1.7904
   36.060    1.7588
   36.195    1.5061
   36.330    1.7483
   36.465    1.7588
   36.600    1.5798
   36.735    1.5798
   36.870    1.3691
   37.005    1.7272
   37.140    1.5377
   37.275    1.6324
   37.410    1.5061
   37.545    1.4534
   37.680    1.4850
   37.815    1.4850
   37.950    1.5692
   38.085    1.2744
   38.220    1.4113
   38.355    1.3586
   38.490    1.4745
   38.625    1.5798
   38.760    1.3270
   38.895    1.4218
   39.030    1.3375
   39.165    1.4850
   39.300    1.3797
   39.435    1.3797
   39.570    1.3586
   39.705    1.4745
   39.840    1.2533
   39.975    1.3797
   39.990    1.3270