File: data/MOCOF-1/PXRD/PXRD_KE-292_Cu-Ka1_film-3mm_3s-deg.xyd
    1.500   13.3052
    1.635   12.0590
    1.770   10.5845
    1.905   10.4616
    2.040    9.3031
    2.175    9.4085
    2.310    8.5659
    2.445    8.7414
    2.580    8.7239
    2.715    9.2505
    2.850    9.4962
    2.985   11.1989
    3.120   14.4989
    3.255   11.8483
    3.390   10.7776
    3.525   12.1643
    3.660   16.2893
    3.795   26.6807
    3.930    9.0925
    4.065    8.2149
    4.200    7.5303
    4.335    8.0042
    4.470    7.3372
    4.605    7.4601
    4.740    7.7936
    4.875    7.7058
    5.010    8.4957
    5.145    9.2154
    5.280   11.3569
    5.415   11.2866
    5.550    9.8473
    5.685    9.6367
    5.820    8.7414
    5.955    8.4430
    6.090    7.5654
    6.225    7.3899
    6.360    8.4255
    6.495    8.3202
    6.630    7.8287
    6.765    6.8106
    6.900    6.6175
    7.035    5.9329
    7.170    6.2138
    7.305    5.5117
    7.440    6.0383
    7.575    6.1085
    7.710    6.0032
    7.845    5.7399
    7.980    5.3888
    8.115    4.9675
    8.250    4.8973
    8.385    4.7569
    8.520    5.7048
    8.655    4.5814
    8.790    4.6516
    8.925    4.6340
    9.060    4.5111
    9.195    4.5638
    9.330    5.8978
    9.465    4.0021
    9.600    4.9851
    9.735    4.4760
    9.870    4.2830
   10.005    4.7569
   10.140    5.5117
   10.275    4.3181
   10.410    4.7042
   10.545    4.7569
   10.680    4.9675
   10.815    5.1782
   10.950    5.1606
   11.085    4.7744
   11.220    4.7569
   11.355    5.0026
   11.490    5.0553
   11.625    4.9149
   11.760    4.7744
   11.895    4.7744
   12.030    4.7744
   12.165    4.3181
   12.300    4.3707
   12.435    4.4409
   12.570    4.1074
   12.705    4.9500
   12.840    4.5111
   12.975    4.2478
   13.110    4.3883
   13.245    5.1957
   13.380    4.3181
   13.515    4.0021
   13.650    4.3356
   13.785    4.7920
   13.920    4.7744
   14.055    4.6340
   14.190    4.3532
   14.325    4.7218
   14.460    4.7744
   14.595    4.4058
   14.730    4.7042
   14.865    4.3181
   15.000    4.6867
   15.135    4.0548
   15.270    4.7042
   15.405    4.6516
   15.540    4.2478
   15.675    3.8792
   15.810    4.4409
   15.945    4.0021
   16.080    4.2830
   16.215    4.1952
   16.350    4.8447
   16.485    4.5111
   16.620    4.2303
   16.755    4.3356
   16.890    4.0899
   17.025    3.9319
   17.160    4.7744
   17.295    4.4936
   17.430    4.4058
   17.565    3.8266
   17.700    4.1601
   17.835    4.2478
   17.970    4.1250
   18.105    4.6516
   18.240    3.9494
   18.375    4.4585
   18.510    4.0197
   18.645    4.2830
   18.780    3.8792
   18.915    4.1074
   19.050    4.6165
   19.185    4.2830
   19.320    4.1074
   19.455    3.8968
   19.590    3.9846
   19.725    4.1250
   19.860    3.5808
   19.995    4.1074
   20.130    3.8441
   20.265    3.5984
   20.400    3.9670
   20.535    3.9846
   20.670    3.7213
   20.805    3.5633
   20.940    3.8792
   21.075    3.7213
   21.210    3.7564
   21.345    3.4580
   21.480    3.7037
   21.615    3.8968
   21.750    3.7388
   21.885    3.7915
   22.020    3.9143
   22.155    3.7915
   22.290    3.4053
   22.425    3.7388
   22.560    3.7739
   22.695    3.8441
   22.830    3.4931
   22.965    3.3526
   23.100    3.5106
   23.235    3.3877
   23.370    3.8792
   23.505    3.4931
   23.640    3.4053
   23.775    3.4580
   23.910    3.7213
   24.045    3.5106
   24.180    3.2473
   24.315    3.2824
   24.450    3.3877
   24.585    3.4404
   24.720    3.3702
   24.855    2.9665
   24.990    3.0542
   25.125    3.0016
   25.260    3.1947
   25.395    3.1771
   25.530    3.3702
   25.665    2.9665
   25.800    2.9489
   25.935    2.8085
   26.070    2.9489
   26.205    2.8787
   26.340    2.9138
   26.475    3.0893
   26.610    3.0718
   26.745    2.9314
   26.880    2.9665
   27.015    2.7558
   27.150    2.5628
   27.285    2.4750
   27.420    3.0718
   27.555    2.6505
   27.690    2.8436
   27.825    2.6154
   27.960    3.1069
   28.095    2.6681
   28.230    2.8260
   28.365    2.4223
   28.500    2.5101
   28.635    2.3170
   28.770    2.8436
   28.905    2.6154
   29.040    2.6154
   29.175    2.7032
   29.310    2.7734
   29.445    2.4048
   29.580    2.2292
   29.715    2.6856
   29.850    2.2643
   29.985    2.4750
   30.120    2.5101
   30.255    2.2643
   30.390    2.0888
   30.525    2.0713
   30.660    2.0011
   30.795    2.0537
   30.930    1.9835
   31.065    2.2995
   31.200    1.7904
   31.335    2.1064
   31.470    2.2468
   31.605    1.8782
   31.740    2.1941
   31.875    2.1239
   32.010    2.1064
   32.145    2.0713
   32.280    2.0713
   32.415    1.9835
   32.550    1.9835
   32.685    1.9133
   32.820    1.8782
   32.955    2.0537
   33.090    1.9659
   33.225    1.7202
   33.360    1.9659
   33.495    1.9133
   33.630    1.7729
   33.765    2.1239
   33.900    1.7729
   34.035    1.8606
   34.170    1.7729
   34.305    1.8431
   34.440    1.4394
   34.575    1.5622
   34.710    1.8957
   34.845    1.5271
   34.980    1.8080
   35.115    1.9133
   35.250    1.8080
   35.385    1.8606
   35.520    1.8080
   35.655    1.8080
   35.790    1.8255
   35.925    1.6149
   36.060    1.5973
   36.195    1.4745
   36.330    1.5622
   36.465    1.4745
   36.600    1.7378
   36.735    1.6675
   36.870    1.5798
   37.005    1.6851
   37.140    1.6500
   37.275    1.8606
   37.410    1.6851
   37.545    1.6324
   37.680    1.5096
   37.815    1.6675
   37.950    1.7729
   38.085    1.5271
   38.220    1.8255
   38.355    1.7553
   38.490    1.6851
   38.625    2.0713
   38.760    1.6324
   38.895    1.5447
   39.030    1.4394
   39.165    1.5622
   39.300    1.4920
   39.435    1.7202
   39.570    1.4920
   39.705    1.5096
   39.840    1.3516
   39.975    1.5096
   39.990    1.5447