File: data/MOCOF-1/PXRD/PXRD_KE-212_Co-Ka1_film-3mm_5s-deg.xyd
    1.500    6.4419
    1.635    5.3826
    1.770    4.5907
    1.905    4.2590
    2.040    3.4029
    2.175    3.5099
    2.310    3.0926
    2.445    2.4933
    2.580    2.6538
    2.715    2.5575
    2.850    2.4077
    2.985    2.6752
    3.120    2.2793
    3.255    2.4719
    3.390    2.7394
    3.525    3.1354
    3.660    3.7774
    3.795    6.4205
    3.930   11.1396
    4.065   14.2643
    4.200    6.1316
    4.335    5.8106
    4.470    8.0578
    4.605    6.0781
    4.740    5.9283
    4.875    4.7298
    5.010    3.7346
    5.145    2.7822
    5.280    2.3542
    5.415    2.2258
    5.550    2.0546
    5.685    1.7657
    5.820    1.9690
    5.955    1.8406
    6.090    1.9476
    6.225    2.2793
    6.360    3.0284
    6.495    2.2472
    6.630    2.1509
    6.765    1.8834
    6.900    1.8299
    7.035    1.6158
    7.170    1.6479
    7.305    1.4446
    7.440    1.6479
    7.575    1.3911
    7.710    1.6800
    7.845    2.1081
    7.980    1.9048
    8.115    2.4933
    8.250    1.5623
    8.385    1.4553
    8.520    1.3269
    8.655    1.3269
    8.790    1.2948
    8.925    1.1557
    9.060    1.6265
    9.195    1.3269
    9.330    1.2306
    9.465    1.2948
    9.600    1.2734
    9.735    1.1343
    9.870    1.2520
   10.005    1.2520
   10.140    1.1129
   10.275    0.9952
   10.410    1.0059
   10.545    1.0701
   10.680    0.8775
   10.815    0.9952
   10.950    0.9417
   11.085    1.2948
   11.220    0.9203
   11.355    0.7491
   11.490    0.9203
   11.625    0.9096
   11.760    0.8989
   11.895    0.9203
   12.030    0.9631
   12.165    0.8668
   12.300    0.8775
   12.435    0.7491
   12.570    0.8240
   12.705    0.8775
   12.840    1.0915
   12.975    1.1343
   13.110    1.0059
   13.245    0.9524
   13.380    0.9310
   13.515    1.0059
   13.650    0.9631
   13.785    0.9524
   13.920    0.8347
   14.055    0.9203
   14.190    1.0166
   14.325    1.0915
   14.460    0.9096
   14.595    0.9203
   14.730    1.0380
   14.865    0.8882
   15.000    1.0059
   15.135    0.8668
   15.270    0.8668
   15.405    1.0166
   15.540    0.7919
   15.675    0.8668
   15.810    0.8989
   15.945    0.8133
   16.080    0.9738
   16.215    1.0915
   16.350    1.0594
   16.485    0.9524
   16.620    0.8989
   16.755    0.9524
   16.890    1.0701
   17.025    1.0059
   17.160    0.8668
   17.295    0.9845
   17.430    0.8668
   17.565    0.8561
   17.700    0.8454
   17.835    0.9096
   17.970    0.9096
   18.105    0.9096
   18.240    0.7598
   18.375    0.8347
   18.510    0.7063
   18.645    0.8561
   18.780    0.9524
   18.915    0.8882
   19.050    0.7812
   19.185    0.8668
   19.320    0.9631
   19.455    0.8989
   19.590    0.8668
   19.725    0.8026
   19.860    0.8668
   19.995    0.8561
   20.130    0.7812
   20.265    0.8133
   20.400    0.7491
   20.535    0.7705
   20.670    0.8347
   20.805    0.8026
   20.940    0.8454
   21.075    0.7812
   21.210    0.7812
   21.345    0.7170
   21.480    0.8989
   21.615    0.8561
   21.750    0.8454
   21.885    0.7063
   22.020    0.8026
   22.155    0.7919
   22.290    0.7812
   22.425    0.9203
   22.560    0.8026
   22.695    0.6956
   22.830    0.8240
   22.965    0.8454
   23.100    0.7491
   23.235    0.7063
   23.370    0.9203
   23.505    0.8561
   23.640    0.7919
   23.775    0.7812
   23.910    0.8454
   24.045    0.6528
   24.180    0.7277
   24.315    0.6849
   24.450    0.5671
   24.585    0.6956
   24.720    0.7063
   24.855    0.6314
   24.990    0.7277
   25.125    0.7277
   25.260    0.7170
   25.395    0.9417
   25.530    0.7919
   25.665    0.8133
   25.800    0.7705
   25.935    0.6849
   26.070    0.6635
   26.205    0.7491
   26.340    0.7491
   26.475    0.5350
   26.610    0.7277
   26.745    0.7277
   26.880    0.6528
   27.015    0.7063
   27.150    0.7277
   27.285    0.7063
   27.420    0.5886
   27.555    0.5993
   27.690    0.5350
   27.825    0.6421
   27.960    0.5350
   28.095    0.6314
   28.230    0.6314
   28.365    0.5778
   28.500    0.6100
   28.635    0.6849
   28.770    0.5671
   28.905    0.5457
   29.040    0.7063
   29.175    0.4922
   29.310    0.5671
   29.445    0.5136
   29.580    0.5243
   29.715    0.7170
   29.850    0.5029
   29.985    0.5886
   30.120    0.5243
   30.255    0.5457
   30.390    0.4280
   30.525    0.5564
   30.660    0.5993
   30.795    0.5136
   30.930    0.4708
   31.065    0.5993
   31.200    0.5136
   31.335    0.4494
   31.470    0.5350
   31.605    0.6314
   31.740    0.4173
   31.875    0.4601
   32.010    0.4173
   32.145    0.3745
   32.280    0.5564
   32.415    0.4173
   32.550    0.4173
   32.685    0.5457
   32.820    0.4601
   32.955    0.4280
   33.090    0.5243
   33.225    0.4708
   33.360    0.4387
   33.495    0.4815
   33.630    0.4601
   33.765    0.5136
   33.900    0.4387
   34.035    0.4173
   34.170    0.4387
   34.305    0.4173
   34.440    0.3210
   34.575    0.4601
   34.710    0.3638
   34.845    0.3852
   34.980    0.4922
   35.115    0.4601
   35.250    0.3424
   35.385    0.3531
   35.520    0.3317
   35.655    0.5136
   35.790    0.4173
   35.925    0.3424
   36.060    0.3531
   36.195    0.4387
   36.330    0.3638
   36.465    0.4280
   36.600    0.3638
   36.735    0.4387
   36.870    0.2996
   37.005    0.4280
   37.140    0.2782
   37.275    0.2782
   37.410    0.3103
   37.545    0.3852
   37.680    0.2568
   37.815    0.2996
   37.950    0.2996
   38.085    0.3103
   38.220    0.2247
   38.355    0.3317
   38.490    0.3424
   38.625    0.2889
   38.760    0.2675
   38.895    0.2140
   39.030    0.2996
   39.165    0.3531
   39.300    0.2889
   39.435    0.2996
   39.570    0.3103
   39.705    0.2033
   39.840    0.2140
   39.975    0.2568
   39.990    0.2568