File: data/MOCOF-1/PXRD/PXRD_KE-055_Cu-Ka1_film-3mm_5s-deg.xyd
    1.500   11.1006
    1.635   10.3949
    1.770   10.1527
    1.905    8.9415
    2.040    8.0253
    2.175    7.9621
    2.310    7.2249
    2.445    7.0142
    2.580    7.0985
    2.715    6.4666
    2.850    6.6140
    2.985    6.3402
    3.120    6.7720
    3.255    7.2986
    3.390    8.6572
    3.525   10.5424
    3.660   10.2475
    3.795    9.2048
    3.930    7.8884
    4.065    7.5724
    4.200    6.9300
    4.335    6.8141
    4.470    6.7825
    4.605    6.8773
    4.740    7.1301
    4.875    6.6245
    5.010    7.4144
    5.145    7.5724
    5.280    8.5835
    5.415    8.5097
    5.550    8.6783
    5.685    8.6677
    5.820    7.7620
    5.955    7.3618
    6.090    6.6772
    6.225    6.4034
    6.360    5.7083
    6.495    5.9610
    6.630    6.0874
    6.765    5.2027
    6.900    5.2027
    7.035    5.7399
    7.170    5.6451
    7.305    4.9921
    7.440    5.1080
    7.575    4.7288
    7.710    4.7709
    7.845    3.9705
    7.980    4.0758
    8.115    3.9600
    8.250    4.2127
    8.385    3.9705
    8.520    4.0864
    8.655    3.7809
    8.790    3.4439
    8.925    3.4229
    9.060    3.4439
    9.195    3.2017
    9.330    3.6651
    9.465    3.2649
    9.600    3.5598
    9.735    3.5492
    9.870    3.2122
   10.005    3.3702
   10.140    3.4018
   10.275    3.6967
   10.410    3.4439
   10.545    3.2649
   10.680    3.5914
   10.815    3.5071
   10.950    3.8547
   11.085    3.6440
   11.220    3.7177
   11.355    3.9705
   11.490    3.6230
   11.625    3.4966
   11.760    3.5914
   11.895    3.6756
   12.030    3.7809
   12.165    3.7388
   12.300    3.4123
   12.435    3.5387
   12.570    3.2649
   12.705    3.1806
   12.840    3.1069
   12.975    3.4334
   13.110    3.4229
   13.245    3.3070
   13.380    3.4650
   13.515    3.5808
   13.650    3.6967
   13.785    3.4966
   13.920    3.8652
   14.055    3.5914
   14.190    3.5808
   14.325    4.1601
   14.460    3.9916
   14.595    3.6756
   14.730    3.6756
   14.865    3.8020
   15.000    3.6019
   15.135    3.6335
   15.270    3.2649
   15.405    3.3491
   15.540    3.5071
   15.675    3.0016
   15.810    3.3913
   15.945    3.5598
   16.080    3.4650
   16.215    3.3175
   16.350    3.5703
   16.485    3.5176
   16.620    3.4334
   16.755    3.3386
   16.890    3.4544
   17.025    3.2965
   17.160    3.1806
   17.295    3.5071
   17.430    3.2859
   17.565    3.5808
   17.700    3.4650
   17.835    3.3281
   17.970    3.2965
   18.105    3.3913
   18.240    3.4123
   18.375    3.5387
   18.510    3.5808
   18.645    3.6019
   18.780    3.6651
   18.915    3.3702
   19.050    3.7599
   19.185    3.4966
   19.320    3.2333
   19.455    3.0858
   19.590    3.0226
   19.725    3.4650
   19.860    3.1806
   19.995    2.9910
   20.130    3.1174
   20.265    3.0226
   20.400    3.6862
   20.535    3.3175
   20.670    3.3386
   20.805    3.1806
   20.940    3.0542
   21.075    3.2333
   21.210    3.0016
   21.345    3.2543
   21.480    2.9910
   21.615    3.4334
   21.750    3.1806
   21.885    2.8225
   22.020    2.8436
   22.155    2.9173
   22.290    2.9279
   22.425    2.6751
   22.560    2.6119
   22.695    2.6014
   22.830    2.3486
   22.965    2.7699
   23.100    2.8963
   23.235    2.6119
   23.370    2.7172
   23.505    2.6014
   23.640    2.5382
   23.775    2.6751
   23.910    2.5276
   24.045    2.6751
   24.180    2.6540
   24.315    2.4434
   24.450    2.4118
   24.585    2.4750
   24.720    2.3697
   24.855    2.3065
   24.990    2.3802
   25.125    2.3486
   25.260    2.5066
   25.395    2.3907
   25.530    2.4223
   25.665    2.4434
   25.800    2.4118
   25.935    2.3486
   26.070    2.1064
   26.205    2.0011
   26.340    2.4855
   26.475    2.1696
   26.610    2.1485
   26.745    2.1169
   26.880    2.0748
   27.015    2.1380
   27.150    2.0326
   27.285    2.2854
   27.420    1.9695
   27.555    2.3065
   27.690    1.9168
   27.825    1.9484
   27.960    1.8115
   28.095    2.0853
   28.230    1.7799
   28.365    1.9168
   28.500    2.2012
   28.635    2.1801
   28.770    1.8641
   28.905    1.6430
   29.040    2.2749
   29.175    1.7904
   29.310    1.8220
   29.445    1.6956
   29.580    1.6430
   29.715    1.4007
   29.850    1.4218
   29.985    1.6324
   30.120    1.4323
   30.255    1.8220
   30.390    1.4955
   30.525    1.4745
   30.660    1.5482
   30.795    1.2849
   30.930    1.4850
   31.065    1.4955
   31.200    1.6114
   31.335    1.4113
   31.470    1.3902
   31.605    1.4323
   31.740    1.3060
   31.875    1.3797
   32.010    1.2954
   32.145    1.9484
   32.280    1.2428
   32.415    1.2322
   32.550    1.2849
   32.685    1.3270
   32.820    1.1690
   32.955    1.2006
   33.090    1.2322
   33.225    1.2849
   33.360    1.2533
   33.495    1.1585
   33.630    1.0953
   33.765    1.2112
   33.900    1.2428
   34.035    1.1480
   34.170    1.0321
   34.305    1.1796
   34.440    1.0637
   34.575    1.1058
   34.710    1.1480
   34.845    1.1796
   34.980    1.1164
   35.115    1.1585
   35.250    1.1374
   35.385    1.2322
   35.520    1.0637
   35.655    1.0953
   35.790    0.9584
   35.925    0.9795
   36.060    1.2849
   36.195    1.1269
   36.330    1.0005
   36.465    1.1374
   36.600    1.2744
   36.735    0.9584
   36.870    0.9689
   37.005    1.0111
   37.140    0.9795
   37.275    1.0953
   37.410    1.0953
   37.545    1.1480
   37.680    0.8425
   37.815    1.0111
   37.950    1.1164
   38.085    1.0216
   38.220    0.8425
   38.355    0.9584
   38.490    1.0532
   38.625    1.0953
   38.760    0.9479
   38.895    1.0321
   39.030    1.1585
   39.165    0.9795
   39.300    1.0005
   39.435    0.9795
   39.570    0.8636
   39.705    0.8215
   39.840    1.0848
   39.975    0.8636
   39.990    0.8636