File: data/MOCOF-1/PXRD/PXRD_KE-002_Cu-Ka1_capillary-1mm_5s-deg.xyd
    1.500   10.1422
    1.635    8.7204
    1.770    8.1201
    1.905    6.9510
    2.040    6.3823
    2.175    6.3402
    2.310    5.6872
    2.445    5.5714
    2.580    5.5398
    2.715    4.9605
    2.850    5.5608
    2.985    5.6977
    3.120    6.3086
    3.255    6.7404
    3.390    7.8989
    3.525    8.6256
    3.660    9.0047
    3.795    8.7309
    3.930    7.3196
    4.065    6.7193
    4.200    5.9926
    4.335    5.0658
    4.470    5.5819
    4.605    5.1185
    4.740    5.0237
    4.875    4.7499
    5.010    4.9394
    5.145    4.4655
    5.280    4.5814
    5.415    4.2865
    5.550    4.4444
    5.685    4.2970
    5.820    4.4023
    5.955    3.9705
    6.090    4.3391
    6.225    3.9600
    6.360    4.1601
    6.495    4.4339
    6.630    3.9494
    6.765    4.0864
    6.900    4.2759
    7.035    4.3391
    7.170    4.4128
    7.305    4.5919
    7.440    4.1285
    7.575    4.4339
    7.710    3.8652
    7.845    3.7493
    7.980    3.9810
    8.115    4.0969
    8.250    3.4860
    8.385    3.7704
    8.520    3.6230
    8.655    3.5703
    8.790    3.4544
    8.925    3.4860
    9.060    3.5598
    9.195    3.6019
    9.330    3.5282
    9.465    3.4544
    9.600    3.2649
    9.735    3.2859
    9.870    3.4544
   10.005    3.3281
   10.140    3.5071
   10.275    3.4544
   10.410    3.4439
   10.545    3.2122
   10.680    3.5703
   10.815    3.7704
   10.950    3.2227
   11.085    3.6440
   11.220    3.4229
   11.355    3.3597
   11.490    3.5282
   11.625    3.3175
   11.760    3.4018
   11.895    3.3070
   12.030    3.3702
   12.165    3.4334
   12.300    3.4334
   12.435    3.4334
   12.570    3.4860
   12.705    3.4439
   12.840    3.3807
   12.975    3.3702
   13.110    3.2438
   13.245    3.5387
   13.380    3.3702
   13.515    2.9489
   13.650    3.1385
   13.785    3.3807
   13.920    3.1490
   14.055    3.3281
   14.190    3.3702
   14.325    3.3281
   14.460    3.1912
   14.595    3.3491
   14.730    3.2017
   14.865    3.1596
   15.000    3.4439
   15.135    3.2649
   15.270    3.5598
   15.405    3.6019
   15.540    3.1701
   15.675    3.2859
   15.810    3.4439
   15.945    3.4439
   16.080    3.5387
   16.215    3.2543
   16.350    3.6651
   16.485    3.5703
   16.620    3.5914
   16.755    3.6862
   16.890    3.4966
   17.025    3.1701
   17.160    3.4860
   17.295    3.6124
   17.430    3.8441
   17.565    3.6335
   17.700    3.3070
   17.835    3.8336
   17.970    3.7388
   18.105    4.1074
   18.240    3.8020
   18.375    3.5282
   18.510    4.0758
   18.645    3.4439
   18.780    3.7177
   18.915    3.6124
   19.050    3.7072
   19.185    3.7809
   19.320    3.6756
   19.455    3.5176
   19.590    3.8231
   19.725    3.7388
   19.860    3.7388
   19.995    3.7809
   20.130    3.8231
   20.265    4.0548
   20.400    3.6335
   20.535    3.7177
   20.670    3.5598
   20.805    3.8863
   20.940    4.0337
   21.075    3.7177
   21.210    3.6862
   21.345    3.5387
   21.480    3.9705
   21.615    3.9810
   21.750    3.6546
   21.885    4.0653
   22.020    3.7177
   22.155    3.8441
   22.290    3.9494
   22.425    3.9284
   22.560    3.9705
   22.695    3.6440
   22.830    3.6230
   22.965    3.6124
   23.100    3.7177
   23.235    3.8231
   23.370    3.6546
   23.505    3.7283
   23.640    3.5703
   23.775    3.4755
   23.910    3.6756
   24.045    3.6862
   24.180    3.8020
   24.315    3.8757
   24.450    3.9179
   24.585    3.7493
   24.720    3.5176
   24.855    3.5808
   24.990    3.3807
   25.125    3.5703
   25.260    3.4755
   25.395    3.1174
   25.530    3.8231
   25.665    3.3807
   25.800    3.3597
   25.935    3.4018
   26.070    3.2754
   26.205    3.3913
   26.340    3.4018
   26.475    3.0542
   26.610    3.2965
   26.745    3.3807
   26.880    3.0964
   27.015    3.2333
   27.150    3.0648
   27.285    3.1912
   27.420    2.9595
   27.555    3.2649
   27.690    2.9805
   27.825    3.1912
   27.960    3.0753
   28.095    2.9068
   28.230    3.1912
   28.365    2.9595
   28.500    2.9384
   28.635    2.9173
   28.770    3.1596
   28.905    2.8436
   29.040    2.5908
   29.175    2.9595
   29.310    3.0648
   29.445    3.0542
   29.580    2.6646
   29.715    2.6646
   29.850    2.7383
   29.985    2.6646
   30.120    2.6751
   30.255    2.3591
   30.390    2.8120
   30.525    2.5487
   30.660    2.6856
   30.795    2.6224
   30.930    2.6224
   31.065    2.6330
   31.200    2.8541
   31.335    2.5908
   31.470    2.7488
   31.605    2.7909
   31.740    2.7067
   31.875    2.6962
   32.010    2.3697
   32.145    2.6540
   32.280    2.3907
   32.415    2.4855
   32.550    2.5382
   32.685    2.7278
   32.820    2.2959
   32.955    2.0642
   33.090    2.2959
   33.225    2.1906
   33.360    2.2959
   33.495    2.2222
   33.630    2.2433
   33.765    2.0853
   33.900    2.0642
   34.035    1.8747
   34.170    1.8536
   34.305    2.0326
   34.440    1.8957
   34.575    1.8641
   34.710    1.9379
   34.845    1.9905
   34.980    1.8957
   35.115    1.7378
   35.250    1.7062
   35.385    1.7904
   35.520    1.7904
   35.655    1.7062
   35.790    2.0642
   35.925    1.6430
   36.060    1.8115
   36.195    1.7378
   36.330    1.6535
   36.465    1.6324
   36.600    1.5692
   36.735    1.7378
   36.870    1.8536
   37.005    1.6535
   37.140    1.7694
   37.275    1.5903
   37.410    1.4218
   37.545    1.5061
   37.680    1.3481
   37.815    1.4534
   37.950    1.4955
   38.085    1.5587
   38.220    1.4218
   38.355    1.3902
   38.490    1.5271
   38.625    1.4218
   38.760    1.6640
   38.895    1.5587
   39.030    1.4429
   39.165    1.2849
   39.300    1.5061
   39.435    1.4007
   39.570    1.5903
   39.705    1.2533
   39.840    1.4007
   39.975    1.4850
   39.990    1.3691