File: data/MOCOF-1/PXRD/PXRD_KE-131_Cu-Ka1_capillary-1mm_5s-deg.xyd
    1.500   43.7599
    1.635   39.4207
    1.770   35.0395
    1.905   33.9758
    2.040   32.7225
    2.175   33.0911
    2.310   33.6914
    2.445   36.4824
    2.580   39.9263
    2.715   46.4139
    2.850   57.1248
    2.985   70.9953
    3.120   94.7762
    3.255  135.1343
    3.390  223.1069
    3.525  178.2728
    3.660   74.6182
    3.795   79.9263
    3.930  103.1174
    4.065  113.6598
    4.200   82.4013
    4.335   44.7604
    4.470   24.4655
    4.605   17.2828
    4.740   14.2707
    4.875   12.4803
    5.010   11.9010
    5.145   10.9531
    5.280   10.9953
    5.415   10.5635
    5.550    9.7946
    5.685   10.0895
    5.820    9.7104
    5.955    9.2786
    6.090    9.4155
    6.225    9.9737
    6.360   11.1848
    6.495   11.6061
    6.630   13.7967
    6.765   18.2833
    6.900   28.8573
    7.035   23.6651
    7.170   11.9853
    7.305   11.1848
    7.440   10.7741
    7.575   11.4587
    7.710   12.1222
    7.845   13.5545
    7.980   14.7551
    8.115   16.7878
    8.250   16.7457
    8.385   16.2191
    8.520   14.3549
    8.655   13.0384
    8.790   11.1111
    8.925   10.3318
    9.060    9.2364
    9.195    9.3734
    9.330    8.8362
    9.465    8.8046
    9.600    9.4155
    9.735    8.4360
    9.870    8.5519
   10.005    8.3412
   10.140    8.6677
   10.275    9.0363
   10.410   10.1738
   10.545   10.3107
   10.680    8.8046
   10.815    8.5624
   10.950    8.3518
   11.085    8.8784
   11.220    8.7730
   11.355    8.8573
   11.490    8.8362
   11.625    9.3734
   11.760    9.5208
   11.895    9.8052
   12.030    9.5629
   12.165   10.0895
   12.300    9.9842
   12.435    9.7209
   12.570    9.7630
   12.705   10.0369
   12.840    9.8157
   12.975    9.0679
   13.110    9.3312
   13.245    8.6361
   13.380    9.3523
   13.515    9.1522
   13.650    9.1522
   13.785    8.9837
   13.920    8.5835
   14.055    8.6677
   14.190    8.4150
   14.325    8.3728
   14.460    8.4571
   14.595    8.4044
   14.730    8.6783
   14.865    8.3412
   15.000    8.7414
   15.135    8.5835
   15.270    8.5835
   15.405    9.3839
   15.540    8.5413
   15.675    8.4992
   15.810    8.5203
   15.945    8.6993
   16.080    8.5729
   16.215    8.7836
   16.350    8.1411
   16.485    8.1938
   16.620    8.2254
   16.755    8.4676
   16.890    8.6151
   17.025    8.6467
   17.160    8.0885
   17.295    8.6783
   17.430    8.5097
   17.565    8.2780
   17.700    8.5519
   17.835    8.5624
   17.970    9.1522
   18.105    8.9205
   18.240    8.8889
   18.375    8.6888
   18.510    8.5097
   18.645    8.8889
   18.780    8.7309
   18.915    8.5097
   19.050    8.5203
   19.185    9.0785
   19.320    8.4676
   19.455    9.2680
   19.590    9.3102
   19.725    9.6051
   19.860    9.2470
   19.995    9.1732
   20.130    9.8789
   20.265    9.1311
   20.400    9.6367
   20.535    9.2786
   20.670    9.7209
   20.805    9.7841
   20.940    9.3523
   21.075    9.4681
   21.210    9.5945
   21.345    9.7946
   21.480    9.5629
   21.615    9.5103
   21.750    9.4050
   21.885    9.5103
   22.020    9.1627
   22.155    9.4997
   22.290    9.3839
   22.425    9.7525
   22.560    9.0890
   22.695    9.3839
   22.830    9.3628
   22.965    9.5419
   23.100    9.7630
   23.235    9.1206
   23.370    9.4155
   23.505    9.4787
   23.640    8.8046
   23.775    8.3728
   23.910    8.9942
   24.045    9.0785
   24.180    9.2680
   24.315    9.4997
   24.450    8.6361
   24.585    9.1101
   24.720    8.8362
   24.855    8.9942
   24.990    9.0047
   25.125    8.7309
   25.260    8.3518
   25.395    8.4360
   25.530    8.5308
   25.665    8.4571
   25.800    8.5729
   25.935    8.2254
   26.070    8.2991
   26.205    8.3623
   26.340    7.8778
   26.475    8.3096
   26.610    8.2149
   26.745    7.6356
   26.880    7.8357
   27.015    8.1095
   27.150    8.2464
   27.285    7.8146
   27.420    8.0674
   27.555    7.6145
   27.690    7.8568
   27.825    7.9937
   27.960    7.7830
   28.095    8.1517
   28.230    8.2149
   28.365    8.1411
   28.500    8.4466
   28.635    7.9200
   28.770    7.6356
   28.905    7.8673
   29.040    7.7725
   29.175    7.6567
   29.310    7.8146
   29.445    7.7304
   29.580    7.8989
   29.715    7.9305
   29.850    7.5619
   29.985    7.6672
   30.120    7.4250
   30.255    7.1090
   30.390    7.7936
   30.525    7.4250
   30.660    7.4039
   30.795    7.2459
   30.930    7.8568
   31.065    7.6672
   31.200    7.7409
   31.335    7.3512
   31.470    7.4882
   31.605    7.8989
   31.740    7.8357
   31.875    7.8884
   32.010    7.4882
   32.145    7.4355
   32.280    7.5829
   32.415    7.4671
   32.550    7.6672
   32.685    7.2143
   32.820    7.4671
   32.955    7.0985
   33.090    7.3723
   33.225    7.1406
   33.360    7.0985
   33.495    7.1511
   33.630    6.9300
   33.765    7.0879
   33.900    6.8984
   34.035    6.8668
   34.170    7.2775
   34.305    7.2143
   34.440    7.2354
   34.575    6.7930
   34.710    6.8562
   34.845    7.1722
   34.980    7.2249
   35.115    6.9300
   35.250    7.0142
   35.385    7.3091
   35.520    7.0669
   35.655    7.2775
   35.790    6.6772
   35.925    7.1195
   36.060    6.9300
   36.195    6.7825
   36.330    6.4244
   36.465    6.7193
   36.600    7.1827
   36.735    6.6877
   36.870    6.6456
   37.005    6.4666
   37.140    6.5508
   37.275    6.4244
   37.410    6.9300
   37.545    6.8773
   37.680    6.6245
   37.815    6.2981
   37.950    6.8246
   38.085    6.4876
   38.220    6.4139
   38.355    6.6140
   38.490    6.6877
   38.625    6.5824
   38.760    6.9405
   38.895    7.2354
   39.030    6.5824
   39.165    6.7299
   39.300    6.8773
   39.435    6.6456
   39.570    6.7720
   39.705    6.8457
   39.840    6.6983
   39.975    6.6140
   39.990    6.3928