File: data/MOCOF-1/PXRD/PXRD_KE-061_Cu-Ka1_capillary-1mm_5s-deg.xyd
    1.500   33.1964
    1.635   30.7109
    1.770   28.5835
    1.905   25.6661
    2.040   24.6867
    2.175   22.7067
    2.310   21.5166
    2.445   20.4950
    2.580   20.7478
    2.715   20.7056
    2.850   21.3270
    2.985   21.8957
    3.120   24.6024
    3.255   28.0463
    3.390   33.4176
    3.525   41.9273
    3.660   59.4629
    3.795   94.5445
    3.930  162.2012
    4.065   17.0300
    4.200   12.0379
    4.335   10.3633
    4.470   10.0369
    4.605   10.2686
    4.740   10.4581
    4.875   11.0690
    5.010   12.2275
    5.145   15.3976
    5.280   19.4313
    5.415   30.9110
    5.550   52.3749
    5.685    9.4050
    5.820    8.4255
    5.955    7.8673
    6.090    7.6145
    6.225    8.3728
    6.360    8.7204
    6.495    9.7525
    6.630   11.2796
    6.765   19.3049
    6.900    7.9831
    7.035    7.5724
    7.170    7.6883
    7.305    7.6145
    7.440    8.4781
    7.575    9.2891
    7.710   11.9537
    7.845   15.9874
    7.980    7.9410
    8.115    7.4039
    8.250    7.4250
    8.385    7.1722
    8.520    6.9826
    8.655    7.9200
    8.790    8.3834
    8.925    7.5829
    9.060    7.4566
    9.195    8.2570
    9.330    9.8473
    9.465   14.2075
    9.600   26.1717
    9.735    8.6467
    9.870    7.9621
   10.005    7.5935
   10.140    8.5097
   10.275   10.8268
   10.410   11.5113
   10.545    7.5092
   10.680    7.0142
   10.815    7.8252
   10.950    8.9731
   11.085   12.9015
   11.220    7.0037
   11.355    7.0879
   11.490    7.6461
   11.625    9.1732
   11.760   13.7967
   11.895    7.3723
   12.030    6.5087
   12.165    6.4560
   12.300    6.9089
   12.435    7.2565
   12.570    6.1085
   12.705    6.6877
   12.840    6.9405
   12.975   10.4687
   13.110    7.4355
   13.245    6.6456
   13.380    6.6245
   13.515    7.4250
   13.650    7.4355
   13.785    6.4350
   13.920    6.9616
   14.055    8.6993
   14.190    8.5624
   14.325    6.3823
   14.460    6.3296
   14.595    6.1295
   14.730    6.2033
   14.865    6.2981
   15.000    6.3823
   15.135    6.7615
   15.270    6.4771
   15.405    6.5298
   15.540    6.3823
   15.675    6.1401
   15.810    6.2138
   15.945    6.5508
   16.080    6.6140
   16.215    6.5613
   16.350    6.2875
   16.485    6.4560
   16.620    7.7304
   16.755    7.1301
   16.890    6.8668
   17.025    7.8041
   17.160    8.7625
   17.295    6.5403
   17.430    6.4350
   17.565    7.2565
   17.700    6.3612
   17.835    6.6561
   17.970    6.6456
   18.105    6.1295
   18.240    6.3507
   18.375    7.2143
   18.510    6.7193
   18.645    6.3928
   18.780    6.6877
   18.915    6.8141
   19.050    7.7199
   19.185    6.2665
   19.320    6.3507
   19.455    6.5298
   19.590    6.9089
   19.725    6.7193
   19.860    6.2770
   19.995    7.0037
   20.130    6.8562
   20.265    6.8878
   20.400    8.1095
   20.535    7.0248
   20.670    6.3718
   20.805    6.6035
   20.940    6.4560
   21.075    6.5824
   21.210    6.6667
   21.345    6.5613
   21.480    6.4982
   21.615    6.3086
   21.750    6.4982
   21.885    7.2880
   22.020    7.0248
   22.155    6.8668
   22.290    7.2354
   22.425    6.7509
   22.560    8.6256
   22.695    7.9831
   22.830    7.1511
   22.965    9.4471
   23.100    7.2986
   23.235    7.2565
   23.370    6.7615
   23.505    6.5929
   23.640    6.5929
   23.775    6.6245
   23.910    7.2354
   24.045    7.0563
   24.180    6.4244
   24.315    6.5298
   24.450    6.5824
   24.585    6.8668
   24.720    6.4876
   24.855    6.6877
   24.990    6.4560
   25.125    6.4771
   25.260    7.0458
   25.395    6.3296
   25.530    6.6456
   25.665    6.6772
   25.800    7.1617
   25.935    7.3723
   26.070    6.3718
   26.205    6.0137
   26.340    6.3823
   26.475    6.7193
   26.610    6.1295
   26.745    6.0979
   26.880    6.4034
   27.015    6.7509
   27.150    6.6772
   27.285    6.2665
   27.420    6.2243
   27.555    6.2454
   27.690    6.7825
   27.825    6.0242
   27.960    7.0037
   28.095    6.7299
   28.230    6.9721
   28.365    6.5298
   28.500    6.8352
   28.635    6.3928
   28.770    6.5087
   28.905    5.9084
   29.040    6.8036
   29.175    6.4139
   29.310    6.6561
   29.445    6.0453
   29.580    5.8768
   29.715    6.2665
   29.850    6.3086
   29.985    6.0348
   30.120    5.6029
   30.255    5.7188
   30.390    5.6135
   30.525    6.0664
   30.660    5.8768
   30.795    5.9716
   30.930    5.6977
   31.065    5.5187
   31.200    5.6029
   31.335    5.6451
   31.470    5.6872
   31.605    5.3291
   31.740    5.8557
   31.875    6.3191
   32.010    5.9189
   32.145    7.9305
   32.280    5.9821
   32.415    5.4871
   32.550    5.5608
   32.685    5.3923
   32.820    5.0869
   32.955    5.4134
   33.090    5.1817
   33.225    5.2343
   33.360    5.4134
   33.495    5.5608
   33.630    5.5398
   33.765    5.7715
   33.900    6.0664
   34.035    5.7399
   34.170    5.2449
   34.305    5.5714
   34.440    5.1606
   34.575    5.1185
   34.710    5.3818
   34.845    5.4239
   34.980    4.9710
   35.115    4.6551
   35.250    4.8657
   35.385    5.1711
   35.520    5.0974
   35.655    5.1817
   35.790    4.9289
   35.925    5.1711
   36.060    4.9394
   36.195    5.2870
   36.330    4.6761
   36.465    4.9289
   36.600    5.0658
   36.735    4.9605
   36.870    4.7288
   37.005    5.0448
   37.140    5.3081
   37.275    5.1290
   37.410    5.0026
   37.545    5.0448
   37.680    4.8341
   37.815    4.8131
   37.950    5.1606
   38.085    4.8868
   38.220    5.0764
   38.355    5.1185
   38.490    4.9289
   38.625    5.1501
   38.760    4.7393
   38.895    4.4550
   39.030    4.6130
   39.165    4.9394
   39.300    4.9500
   39.435    4.7604
   39.570    4.6761
   39.705    4.6445
   39.840    4.8868
   39.975    4.7393
   39.990    4.6235