File: data/MOCOF-1/PXRD/PXRD_KE-268_Cu-Ka1_film-3mm_3s-deg.xyd
    1.500   16.5526
    1.635   15.2361
    1.770   13.4281
    1.905   13.4281
    2.040   12.0765
    2.175   11.7606
    2.310   10.9356
    2.445   10.3037
    2.580    9.6191
    2.715    9.9526
    2.850    8.9872
    2.985    9.1276
    3.120   10.0404
    3.255   10.2686
    3.390   12.3925
    3.525   15.3063
    3.660   22.3100
    3.795   45.6030
    3.930   22.0291
    4.065    9.0047
    4.200    8.5133
    4.335    8.8117
    4.470    8.3553
    4.605    8.8468
    4.740    9.0223
    4.875    9.0750
    5.010    9.1627
    5.145   11.0058
    5.280   13.8143
    5.415   21.2217
    5.550   15.4116
    5.685   10.9531
    5.820    9.7771
    5.955    8.4781
    6.090    8.4606
    6.225    8.2149
    6.360    8.1797
    6.495    9.1803
    6.630   10.6898
    6.765   11.9010
    6.900    7.2319
    7.035    7.1968
    7.170    7.0212
    7.305    6.7930
    7.440    6.7755
    7.575    6.9335
    7.710    8.0042
    7.845    7.0915
    7.980    6.0207
    8.115    6.5298
    8.250    5.7574
    8.385    5.6345
    8.520    6.0383
    8.655    6.0909
    8.790    5.9329
    8.925    5.7925
    9.060    5.5468
    9.195    5.5643
    9.330    5.9681
    9.465    9.2329
    9.600   10.3739
    9.735    5.7399
    9.870    5.6521
   10.005    5.7574
   10.140    5.7399
   10.275    7.9691
   10.410    6.0032
   10.545    5.4239
   10.680    5.6345
   10.815    5.9154
   10.950    6.3893
   11.085    7.5654
   11.220    5.8452
   11.355    5.8276
   11.490    5.7399
   11.625    6.8457
   11.760    7.6356
   11.895    5.7925
   12.030    5.8978
   12.165    5.3361
   12.300    5.3888
   12.435    5.3537
   12.570    5.3186
   12.705    5.8276
   12.840    5.5643
   12.975    7.0388
   13.110    5.4064
   13.245    5.5292
   13.380    5.5117
   13.515    6.1085
   13.650    5.2835
   13.785    5.5643
   13.920    5.7223
   14.055    6.7579
   14.190    6.0558
   14.325    5.8627
   14.460    6.1436
   14.595    5.7223
   14.730    5.3186
   14.865    5.4590
   15.000    5.3712
   15.135    5.7750
   15.270    5.4766
   15.405    5.4590
   15.540    5.4941
   15.675    5.3186
   15.810    5.2835
   15.945    5.3712
   16.080    5.4766
   16.215    5.1255
   16.350    5.4415
   16.485    5.4766
   16.620    5.6872
   16.755    5.3010
   16.890    4.8095
   17.025    6.1611
   17.160    6.0032
   17.295    5.0904
   17.430    5.5292
   17.565    6.0032
   17.700    5.1080
   17.835    5.2484
   17.970    5.6872
   18.105    5.0202
   18.240    5.2308
   18.375    5.7925
   18.510    5.1782
   18.645    5.2835
   18.780    5.3712
   18.915    5.5819
   19.050    5.4239
   19.185    5.1431
   19.320    4.9500
   19.455    4.8095
   19.590    5.3010
   19.725    4.7393
   19.860    5.0377
   19.995    5.1782
   20.130    4.8095
   20.265    4.9500
   20.400    5.7223
   20.535    4.9500
   20.670    4.9149
   20.805    4.5638
   20.940    4.4409
   21.075    4.8271
   21.210    4.6691
   21.345    4.6165
   21.480    4.5111
   21.615    4.7920
   21.750    4.7393
   21.885    5.2133
   22.020    4.8095
   22.155    4.6340
   22.290    4.5638
   22.425    4.7569
   22.560    5.8978
   22.695    5.1782
   22.830    4.6165
   22.965    5.5643
   23.100    4.7744
   23.235    4.4585
   23.370    4.5463
   23.505    4.3883
   23.640    4.3532
   23.775    4.6165
   23.910    4.1952
   24.045    4.3883
   24.180    3.9143
   24.315    4.0548
   24.450    4.2654
   24.585    4.3181
   24.720    4.1776
   24.855    4.2303
   24.990    4.2303
   25.125    4.2303
   25.260    4.3707
   25.395    3.8090
   25.530    4.2830
   25.665    4.1250
   25.800    4.2830
   25.935    4.3005
   26.070    4.0899
   26.205    4.3532
   26.340    3.9143
   26.475    3.9494
   26.610    4.1776
   26.745    3.6686
   26.880    3.7564
   27.015    4.3356
   27.150    3.9670
   27.285    3.7388
   27.420    3.6335
   27.555    3.8792
   27.690    3.9670
   27.825    3.7915
   27.960    4.5638
   28.095    3.7915
   28.230    4.1250
   28.365    3.8441
   28.500    4.0197
   28.635    3.6862
   28.770    3.7915
   28.905    4.4409
   29.040    4.2127
   29.175    3.7564
   29.310    3.8441
   29.445    3.8968
   29.580    3.7739
   29.715    3.3175
   29.850    3.5984
   29.985    3.2824
   30.120    3.3000
   30.255    3.4755
   30.390    3.0718
   30.525    3.2649
   30.660    3.4580
   30.795    3.0542
   30.930    3.1069
   31.065    2.5276
   31.200    2.9489
   31.335    3.1420
   31.470    3.1420
   31.605    3.0191
   31.740    3.0718
   31.875    2.7558
   32.010    3.4053
   32.145    4.8447
   32.280    3.3526
   32.415    3.0016
   32.550    2.7032
   32.685    3.0718
   32.820    2.8787
   32.955    2.9489
   33.090    2.9138
   33.225    2.8787
   33.360    2.8085
   33.495    2.3872
   33.630    2.9665
   33.765    3.0718
   33.900    2.9138
   34.035    3.1420
   34.170    2.7207
   34.305    2.5803
   34.440    2.4750
   34.575    2.8085
   34.710    2.5803
   34.845    2.5276
   34.980    2.4574
   35.115    2.4750
   35.250    2.8612
   35.385    2.8085
   35.520    2.6154
   35.655    2.4399
   35.790    2.7383
   35.925    2.5979
   36.060    2.8436
   36.195    3.1069
   36.330    2.8085
   36.465    2.5628
   36.600    2.7207
   36.735    2.5628
   36.870    2.8612
   37.005    2.5276
   37.140    2.5452
   37.275    2.4574
   37.410    2.6681
   37.545    2.5101
   37.680    2.5979
   37.815    2.9314
   37.950    2.4048
   38.085    2.6681
   38.220    2.3697
   38.355    2.7734
   38.490    2.5452
   38.625    3.2473
   38.760    2.7909
   38.895    2.2643
   39.030    2.4750
   39.165    2.4574
   39.300    2.3521
   39.435    2.6330
   39.570    2.7383
   39.705    2.3170
   39.840    2.7383
   39.975    2.3872
   39.990    2.4574