File: data/MOCOF-1/PXRD/PXRD_KE-110_Cu-Ka1_capillary-1mm_5s-deg.xyd
    1.500   11.8694
    1.635   10.5213
    1.770   10.2159
    1.905    8.6151
    2.040    8.1833
    2.175    7.4144
    2.310    7.2249
    2.445    6.6561
    2.580    6.4666
    2.715    6.4876
    2.850    6.3612
    2.985    6.4350
    3.120    6.2770
    3.255    6.0769
    3.390    6.3612
    3.525    5.8768
    3.660    6.3928
    3.795    6.0137
    3.930    5.8136
    4.065    5.9505
    4.200    5.5187
    4.335    5.6977
    4.470    5.6451
    4.605    5.7188
    4.740    5.6451
    4.875    5.5924
    5.010    5.3291
    5.145    5.3818
    5.280    5.1711
    5.415    5.5292
    5.550    5.2133
    5.685    5.3607
    5.820    5.3712
    5.955    5.3186
    6.090    5.0132
    6.225    5.5924
    6.360    5.5398
    6.495    5.6345
    6.630    5.2449
    6.765    5.5924
    6.900    5.4028
    7.035    5.6556
    7.170    5.5819
    7.305    5.6767
    7.440    5.6977
    7.575    5.8978
    7.710    5.5187
    7.845    5.5714
    7.980    5.8347
    8.115    5.5398
    8.250    5.9821
    8.385    5.5608
    8.520    5.8978
    8.655    5.8136
    8.790    6.4350
    8.925    5.5924
    9.060    6.2243
    9.195    6.4771
    9.330    6.2665
    9.465    6.2138
    9.600    6.1295
    9.735    6.4982
    9.870    6.0453
   10.005    6.5192
   10.140    6.1190
   10.275    6.4455
   10.410    6.1822
   10.545    5.9505
   10.680    6.4244
   10.815    6.2665
   10.950    6.2454
   11.085    5.9400
   11.220    6.0453
   11.355    6.0242
   11.490    6.2138
   11.625    5.2133
   11.760    5.5608
   11.895    5.5924
   12.030    5.5608
   12.165    5.7609
   12.300    5.2027
   12.435    5.7820
   12.570    5.2554
   12.705    5.2343
   12.840    5.4344
   12.975    5.2765
   13.110    5.2238
   13.245    5.5503
   13.380    5.2449
   13.515    5.1290
   13.650    4.8657
   13.785    5.0974
   13.920    4.9289
   14.055    5.0974
   14.190    5.0448
   14.325    5.0764
   14.460    5.3502
   14.595    5.2027
   14.730    5.0237
   14.865    4.9605
   15.000    5.2133
   15.135    4.8657
   15.270    5.0869
   15.405    5.1922
   15.540    5.0132
   15.675    5.0764
   15.810    5.2343
   15.945    4.8341
   16.080    5.0974
   16.215    5.2133
   16.350    5.2765
   16.485    4.9710
   16.620    5.0974
   16.755    5.3923
   16.890    5.2554
   17.025    4.8447
   17.160    4.9078
   17.295    5.3186
   17.430    5.0764
   17.565    5.2238
   17.700    5.2133
   17.835    4.8868
   17.970    5.5398
   18.105    5.0026
   18.240    4.9710
   18.375    5.3712
   18.510    5.1606
   18.645    5.1922
   18.780    5.0132
   18.915    5.1711
   19.050    5.4660
   19.185    5.0448
   19.320    5.4134
   19.455    5.5608
   19.590    5.1711
   19.725    5.1395
   19.860    5.6977
   19.995    5.4239
   20.130    5.1711
   20.265    5.4450
   20.400    5.4028
   20.535    5.1711
   20.670    5.4555
   20.805    5.7504
   20.940    5.6661
   21.075    5.6135
   21.210    5.0869
   21.345    5.8136
   21.480    5.7715
   21.615    5.4976
   21.750    5.4028
   21.885    5.6345
   22.020    5.6977
   22.155    5.0342
   22.290    5.8873
   22.425    5.5819
   22.560    5.7504
   22.695    5.2343
   22.830    5.6135
   22.965    5.7504
   23.100    5.7293
   23.235    5.3081
   23.370    5.5187
   23.505    5.6556
   23.640    5.2133
   23.775    5.5819
   23.910    5.4028
   24.045    5.3081
   24.180    5.5714
   24.315    5.4344
   24.450    5.3818
   24.585    5.3186
   24.720    5.4239
   24.855    5.4555
   24.990    5.3818
   25.125    5.5924
   25.260    5.2554
   25.395    5.3186
   25.530    5.4976
   25.665    5.1501
   25.800    5.5608
   25.935    5.2449
   26.070    5.2238
   26.205    5.4344
   26.340    5.3712
   26.475    5.1185
   26.610    4.9078
   26.745    4.8657
   26.880    4.7499
   27.015    5.0132
   27.150    5.3397
   27.285    5.0237
   27.420    5.1501
   27.555    4.7920
   27.690    5.0237
   27.825    4.9078
   27.960    4.5498
   28.095    5.1501
   28.230    4.5498
   28.365    4.8552
   28.500    4.6867
   28.635    4.6024
   28.770    4.6340
   28.905    4.5919
   29.040    5.1501
   29.175    4.9605
   29.310    4.2970
   29.445    4.5919
   29.580    4.6551
   29.715    4.5498
   29.850    4.7604
   29.985    4.8236
   30.120    4.6235
   30.255    4.3181
   30.390    4.3813
   30.525    4.4234
   30.660    4.2443
   30.795    4.3497
   30.930    4.3813
   31.065    4.4023
   31.200    4.4339
   31.335    4.3181
   31.470    4.4023
   31.605    4.1390
   31.740    4.2759
   31.875    4.0021
   32.010    4.3813
   32.145    4.3813
   32.280    4.3391
   32.415    4.2443
   32.550    4.2443
   32.685    4.2443
   32.820    4.3602
   32.955    4.2233
   33.090    3.8020
   33.225    4.0758
   33.360    3.8441
   33.495    4.1180
   33.630    3.8652
   33.765    4.1074
   33.900    4.1811
   34.035    3.8547
   34.170    4.1706
   34.305    4.0337
   34.440    4.0021
   34.575    3.9179
   34.710    3.8441
   34.845    3.8231
   34.980    4.0232
   35.115    3.8020
   35.250    3.8336
   35.385    3.6546
   35.520    3.9073
   35.655    3.5598
   35.790    3.7809
   35.925    3.6440
   36.060    3.6651
   36.195    3.6546
   36.330    3.7388
   36.465    3.7072
   36.600    3.6651
   36.735    3.4334
   36.870    3.4334
   37.005    3.6019
   37.140    3.6019
   37.275    3.8863
   37.410    3.6651
   37.545    3.6230
   37.680    3.3702
   37.815    3.6124
   37.950    3.5703
   38.085    3.6440
   38.220    3.3702
   38.355    3.1806
   38.490    3.4860
   38.625    4.0126
   38.760    3.6862
   38.895    3.7599
   39.030    3.7072
   39.165    3.5703
   39.300    3.5492
   39.435    3.2543
   39.570    3.4544
   39.705    3.5808
   39.840    3.4334
   39.975    3.2543
   39.990    3.5703