File: data/MOCOF-1/PXRD/PXRD_KE-254_Co-Ka1_film-8mm_3s-deg.xyd
    1.500    5.5288
    1.635    4.5301
    1.770    4.0307
    1.905    4.1912
    2.040    3.5491
    2.175    3.5670
    2.310    3.4778
    2.445    3.2459
    2.580    3.2638
    2.715    3.1746
    2.850    3.1568
    2.985    2.9428
    3.120    3.2103
    3.255    2.5861
    3.390    2.9784
    3.525    2.9784
    3.660    2.9963
    3.795    3.2994
    3.930    3.6026
    4.065    3.7988
    4.200    4.0842
    4.335    5.6893
    4.470   12.9659
    4.605    2.9784
    4.740    2.6396
    4.875    2.8892
    5.010    2.9249
    5.145    3.1211
    5.280    3.0141
    5.415    2.7822
    5.550    2.6574
    5.685    3.0319
    5.820    3.1568
    5.955    3.4243
    6.090    3.8167
    6.225    4.5122
    6.360    7.7582
    6.495    3.4065
    6.630    3.6561
    6.765    2.9071
    6.900    3.2994
    7.035    2.8001
    7.170    2.9249
    7.305    2.3364
    7.440    2.6752
    7.575    2.6039
    7.710    2.7466
    7.845    4.4409
    7.980    1.9975
    8.115    2.2294
    8.250    2.3899
    8.385    1.8370
    8.520    2.2115
    8.655    1.8905
    8.790    1.9262
    8.925    2.2115
    9.060    3.3173
    9.195    1.8013
    9.330    2.0688
    9.465    1.8905
    9.600    1.5873
    9.735    1.5338
    9.870    2.0688
   10.005    1.6230
   10.140    1.4981
   10.275    1.6408
   10.410    1.5873
   10.545    1.5338
   10.680    1.4090
   10.815    1.6586
   10.950    1.7478
   11.085    4.6371
   11.220    1.6230
   11.355    1.4446
   11.490    1.4981
   11.625    1.4268
   11.760    1.5338
   11.895    1.6408
   12.030    1.6408
   12.165    1.3554
   12.300    1.4981
   12.435    1.3554
   12.570    1.5695
   12.705    1.8013
   12.840    2.3185
   12.975    1.5695
   13.110    1.7657
   13.245    1.7300
   13.380    1.7300
   13.515    1.3911
   13.650    1.4803
   13.785    1.5695
   13.920    1.6765
   14.055    1.6586
   14.190    1.3198
   14.325    1.5338
   14.460    1.3019
   14.595    1.5516
   14.730    1.2841
   14.865    1.6230
   15.000    1.7121
   15.135    1.6230
   15.270    1.3733
   15.405    1.8548
   15.540    1.4268
   15.675    1.3554
   15.810    1.6408
   15.945    1.6051
   16.080    1.4446
   16.215    1.5695
   16.350    2.0867
   16.485    1.4446
   16.620    1.5873
   16.755    1.3733
   16.890    1.6943
   17.025    1.6943
   17.160    1.4090
   17.295    1.4803
   17.430    1.6586
   17.565    1.5338
   17.700    1.3376
   17.835    1.4981
   17.970    1.4268
   18.105    1.3554
   18.240    1.6943
   18.375    1.3911
   18.510    1.3733
   18.645    1.4268
   18.780    1.4090
   18.915    1.6051
   19.050    1.3019
   19.185    1.3554
   19.320    1.3911
   19.455    1.3019
   19.590    1.4981
   19.725    1.0523
   19.860    1.4981
   19.995    1.2306
   20.130    1.1414
   20.265    1.4446
   20.400    1.2306
   20.535    1.3376
   20.670    1.3376
   20.805    1.2484
   20.940    1.2306
   21.075    1.2841
   21.210    1.5160
   21.345    1.6765
   21.480    1.3733
   21.615    1.4268
   21.750    1.1771
   21.885    1.2841
   22.020    1.2841
   22.155    1.1236
   22.290    1.4981
   22.425    1.2663
   22.560    1.3019
   22.695    1.1771
   22.830    1.2663
   22.965    1.4268
   23.100    1.2306
   23.235    1.3198
   23.370    1.3198
   23.505    1.2841
   23.640    1.1771
   23.775    1.3376
   23.910    0.8739
   24.045    1.4268
   24.180    1.3376
   24.315    1.1949
   24.450    1.1949
   24.585    1.0523
   24.720    1.1593
   24.855    1.3019
   24.990    1.1236
   25.125    1.0523
   25.260    1.3554
   25.395    1.1414
   25.530    1.2306
   25.665    1.0701
   25.800    0.9631
   25.935    1.2841
   26.070    1.2663
   26.205    1.3198
   26.340    0.9988
   26.475    0.9988
   26.610    1.3019
   26.745    1.1414
   26.880    0.9988
   27.015    0.9631
   27.150    0.9452
   27.285    1.1236
   27.420    1.2128
   27.555    1.0523
   27.690    1.0523
   27.825    1.0344
   27.960    1.0879
   28.095    0.8026
   28.230    0.7847
   28.365    0.9809
   28.500    1.0523
   28.635    0.8561
   28.770    0.9988
   28.905    0.8917
   29.040    0.7669
   29.175    0.9809
   29.310    1.0879
   29.445    0.8026
   29.580    1.0344
   29.715    0.9988
   29.850    0.7669
   29.985    0.9096
   30.120    0.8204
   30.255    0.9631
   30.390    0.7847
   30.525    0.7847
   30.660    0.7134
   30.795    0.8917
   30.930    0.8382
   31.065    0.9096
   31.200    0.8204
   31.335    0.8561
   31.470    1.1058
   31.605    0.6956
   31.740    0.8382
   31.875    0.8917
   32.010    0.7312
   32.145    0.8739
   32.280    0.6956
   32.415    0.8561
   32.550    0.8917
   32.685    0.7669
   32.820    0.6242
   32.955    0.8739
   33.090    0.8561
   33.225    0.7491
   33.360    0.6956
   33.495    0.8204
   33.630    0.7312
   33.765    0.7491
   33.900    0.8026
   34.035    0.7847
   34.170    0.5707
   34.305    0.7491
   34.440    0.4280
   34.575    0.6064
   34.710    0.6599
   34.845    0.4994
   34.980    0.4994
   35.115    0.5172
   35.250    0.4815
   35.385    0.9096
   35.520    0.6242
   35.655    0.7491
   35.790    0.5886
   35.925    0.6064
   36.060    0.5529
   36.195    0.5529
   36.330    0.5886
   36.465    0.5172
   36.600    0.5707
   36.735    0.3745
   36.870    0.4994
   37.005    0.3389
   37.140    0.7491
   37.275    0.6242
   37.410    0.8739
   37.545    0.4994
   37.680    0.6242
   37.815    0.4459
   37.950    0.4815
   38.085    0.4994
   38.220    0.4994
   38.355    0.5172
   38.490    0.4102
   38.625    0.3745
   38.760    0.4102
   38.895    0.3210
   39.030    0.4459
   39.165    0.5350
   39.300    0.4637
   39.435    0.4815
   39.570    0.4815
   39.705    0.4815
   39.840    0.5172
   39.975    0.4815
   39.990    0.6599