File: data/MOCOF-1/PXRD/PXRD_KE-043_Cu-Ka1_capillary-1mm_5s-deg.xyd
    1.500   17.3986
    1.635   14.8815
    1.770   12.5329
    1.905   11.2164
    2.040   10.0369
    2.175    8.6467
    2.310    8.9521
    2.445    8.4992
    2.580    8.2149
    2.715    8.0463
    2.850    8.1306
    2.985    9.1838
    3.120   10.3528
    3.255   11.6693
    3.390   14.8078
    3.525   18.1569
    3.660   17.6303
    3.795   14.1654
    3.930   11.4271
    4.065    9.0153
    4.200    7.6988
    4.335    7.2565
    4.470    7.0669
    4.605    6.9300
    4.740    7.0458
    4.875    6.5087
    5.010    6.9194
    5.145    6.4560
    5.280    6.5719
    5.415    6.0664
    5.550    6.2349
    5.685    5.6345
    5.820    5.4766
    5.955    5.3712
    6.090    5.3397
    6.225    5.1711
    6.360    4.8552
    6.495    4.9184
    6.630    4.9394
    6.765    5.1606
    6.900    5.4660
    7.035    6.1085
    7.170    6.2138
    7.305    6.0664
    7.440    5.7715
    7.575    5.2765
    7.710    4.7920
    7.845    4.8447
    7.980    4.4550
    8.115    4.4971
    8.250    4.4339
    8.385    4.1390
    8.520    3.8336
    8.655    3.7388
    8.790    4.1390
    8.925    3.5387
    9.060    3.8231
    9.195    3.7177
    9.330    3.6124
    9.465    3.6967
    9.600    3.7704
    9.735    3.4018
    9.870    3.4439
   10.005    3.5703
   10.140    3.6440
   10.275    3.3070
   10.410    3.6862
   10.545    3.8336
   10.680    3.6756
   10.815    3.8547
   10.950    3.5914
   11.085    3.7915
   11.220    3.8547
   11.355    3.4439
   11.490    3.4650
   11.625    3.4650
   11.760    3.5808
   11.895    3.3913
   12.030    3.4229
   12.165    3.7072
   12.300    3.3175
   12.435    3.3597
   12.570    3.6967
   12.705    3.4860
   12.840    3.5071
   12.975    3.3913
   13.110    3.4334
   13.245    3.2859
   13.380    3.4755
   13.515    3.5282
   13.650    3.5282
   13.785    3.5808
   13.920    3.2754
   14.055    3.5176
   14.190    3.6862
   14.325    3.4966
   14.460    3.2438
   14.595    3.3281
   14.730    3.4229
   14.865    3.5598
   15.000    3.3702
   15.135    3.4123
   15.270    3.6230
   15.405    3.6756
   15.540    3.5808
   15.675    3.4755
   15.810    3.4439
   15.945    3.7493
   16.080    3.8336
   16.215    3.6124
   16.350    3.6124
   16.485    3.5914
   16.620    3.6440
   16.755    3.4966
   16.890    3.6546
   17.025    3.5071
   17.160    3.5387
   17.295    3.6335
   17.430    3.4966
   17.565    3.7599
   17.700    4.0337
   17.835    4.2338
   17.970    4.1180
   18.105    4.0021
   18.240    4.2759
   18.375    4.4550
   18.510    4.2127
   18.645    4.6024
   18.780    4.3707
   18.915    4.5076
   19.050    4.3707
   19.185    4.0021
   19.320    4.0653
   19.455    3.8968
   19.590    4.1074
   19.725    3.9705
   19.860    4.0969
   19.995    4.0653
   20.130    4.2549
   20.265    4.2759
   20.400    4.1811
   20.535    4.0653
   20.670    3.7493
   20.805    4.1706
   20.940    4.1074
   21.075    3.8863
   21.210    4.1390
   21.345    4.0232
   21.480    4.0126
   21.615    4.0126
   21.750    4.2970
   21.885    4.1390
   22.020    4.1917
   22.155    4.2549
   22.290    4.2654
   22.425    4.1074
   22.560    4.0758
   22.695    3.9705
   22.830    4.0758
   22.965    4.0337
   23.100    3.6230
   23.235    3.6967
   23.370    4.0232
   23.505    3.8231
   23.640    4.0232
   23.775    3.9916
   23.910    4.2549
   24.045    4.0548
   24.180    3.6967
   24.315    3.8547
   24.450    3.6862
   24.585    3.7072
   24.720    3.8231
   24.855    3.5071
   24.990    3.4650
   25.125    3.7915
   25.260    3.5071
   25.395    3.3913
   25.530    3.6019
   25.665    3.5914
   25.800    3.8125
   25.935    3.4334
   26.070    3.2859
   26.205    3.3175
   26.340    3.4123
   26.475    3.4544
   26.610    3.5387
   26.745    3.1174
   26.880    3.2965
   27.015    2.9805
   27.150    3.2859
   27.285    3.2227
   27.420    3.0964
   27.555    3.4334
   27.690    3.0858
   27.825    3.1912
   27.960    3.2438
   28.095    3.1701
   28.230    3.1596
   28.365    2.8331
   28.500    2.6751
   28.635    2.8225
   28.770    2.8225
   28.905    2.7804
   29.040    2.7909
   29.175    2.8225
   29.310    2.6962
   29.445    2.8225
   29.580    2.7909
   29.715    2.6646
   29.850    2.9489
   29.985    2.6224
   30.120    2.6751
   30.255    2.5803
   30.390    2.9068
   30.525    2.3697
   30.660    2.4855
   30.795    2.5066
   30.930    2.3381
   31.065    2.4645
   31.200    2.6224
   31.335    2.3275
   31.470    2.5487
   31.605    2.6540
   31.740    2.3591
   31.875    2.3591
   32.010    2.1485
   32.145    2.3381
   32.280    2.1169
   32.415    2.4013
   32.550    2.2643
   32.685    2.1064
   32.820    2.1696
   32.955    2.1590
   33.090    2.0011
   33.225    2.0326
   33.360    2.2012
   33.495    1.9379
   33.630    2.0326
   33.765    1.9800
   33.900    1.8536
   34.035    2.1380
   34.170    1.6851
   34.305    1.8641
   34.440    1.8536
   34.575    1.8325
   34.710    1.9168
   34.845    1.8536
   34.980    1.7694
   35.115    1.7378
   35.250    1.8115
   35.385    1.8009
   35.520    1.8641
   35.655    1.5903
   35.790    1.5482
   35.925    1.6219
   36.060    1.4955
   36.195    1.6324
   36.330    1.6640
   36.465    1.6008
   36.600    1.5903
   36.735    1.7167
   36.870    1.3691
   37.005    1.4323
   37.140    1.5482
   37.275    1.5166
   37.410    1.5377
   37.545    1.5377
   37.680    1.6008
   37.815    1.4218
   37.950    1.5798
   38.085    1.4323
   38.220    1.3375
   38.355    1.3797
   38.490    1.3797
   38.625    1.4639
   38.760    1.4218
   38.895    1.3481
   39.030    1.2954
   39.165    1.5692
   39.300    1.4218
   39.435    1.5061
   39.570    1.5692
   39.705    1.4218
   39.840    1.2954
   39.975    1.4323
   39.990    1.4323