File: data/MOCOF-1/PXRD/PXRD_KE-157_Cu-Ka1_capillary-1mm_5s-deg.xyd
    1.500   14.2391
    1.635   13.7019
    1.770   12.3855
    1.905   11.2059
    2.040   10.8689
    2.175   10.5951
    2.310   10.5213
    2.445   11.0479
    2.580   10.3844
    2.715   10.6161
    2.850   10.3212
    2.985   11.0585
    3.120   12.5856
    3.255   13.2807
    3.390   15.3028
    3.525   17.4408
    3.660   22.7067
    3.795   33.1332
    3.930   29.1206
    4.065   11.4271
    4.200    9.0679
    4.335    8.8468
    4.470    9.0995
    4.605    8.6783
    4.740    8.2254
    4.875    9.3523
    5.010    9.3523
    5.145    9.0995
    5.280    9.7630
    5.415   11.6061
    5.550   10.6582
    5.685    8.8468
    5.820    8.2780
    5.955    7.5197
    6.090    7.9410
    6.225    7.8462
    6.360    7.8462
    6.495    8.3307
    6.630    8.4150
    6.765    8.0147
    6.900    7.9200
    7.035    8.1517
    7.170    8.2886
    7.305    8.1833
    7.440    8.7625
    7.575    8.2359
    7.710    8.8994
    7.845    9.4050
    7.980    8.5097
    8.115    7.8673
    8.250    8.6151
    8.385    8.0885
    8.520    8.6256
    8.655    8.9205
    8.790    8.3623
    8.925    8.2886
    9.060    8.5097
    9.195    8.7309
    9.330    9.4576
    9.465   10.2264
    9.600   10.5319
    9.735    9.2154
    9.870    9.2364
   10.005    8.9731
   10.140    9.0363
   10.275    9.0153
   10.410    9.0363
   10.545    8.9310
   10.680    8.7836
   10.815    8.8994
   10.950    9.2575
   11.085    8.8257
   11.220    8.2780
   11.355    8.1938
   11.490    8.5413
   11.625    8.1411
   11.760    8.3518
   11.895    7.8989
   12.030    7.8462
   12.165    8.0253
   12.300    7.6567
   12.435    7.9200
   12.570    7.8673
   12.705    7.6145
   12.840    7.6356
   12.975    8.2991
   13.110    8.1095
   13.245    7.0669
   13.380    7.6356
   13.515    8.0779
   13.650    7.5197
   13.785    7.5303
   13.920    7.0563
   14.055    7.6777
   14.190    7.5303
   14.325    7.7304
   14.460    7.8568
   14.595    7.4250
   14.730    7.1195
   14.865    7.7936
   15.000    7.5197
   15.135    7.4039
   15.270    7.6251
   15.405    7.3407
   15.540    7.9305
   15.675    7.5513
   15.810    7.2775
   15.945    7.6040
   16.080    8.3412
   16.215    8.0885
   16.350    8.2991
   16.485    7.7620
   16.620    8.2991
   16.755    8.0253
   16.890    7.4039
   17.025    7.2986
   17.160    7.5513
   17.295    7.5513
   17.430    7.5408
   17.565    7.2880
   17.700    7.3407
   17.835    7.6777
   17.970    7.7199
   18.105    7.5724
   18.240    7.3196
   18.375    7.7304
   18.510    7.8462
   18.645    7.7514
   18.780    7.7409
   18.915    7.2986
   19.050    7.7199
   19.185    7.6461
   19.320    7.4987
   19.455    7.8989
   19.590    7.8252
   19.725    7.9094
   19.860    7.4250
   19.995    7.5513
   20.130    7.8252
   20.265    8.0674
   20.400    8.1411
   20.535    7.5408
   20.670    7.7936
   20.805    7.9305
   20.940    7.3934
   21.075    7.7409
   21.210    8.0674
   21.345    7.7725
   21.480    7.6988
   21.615    7.9726
   21.750    7.8041
   21.885    7.9726
   22.020    8.0463
   22.155    8.2254
   22.290    8.0569
   22.425    8.0253
   22.560    7.9516
   22.695    8.5308
   22.830    8.4044
   22.965    8.1201
   23.100    8.0358
   23.235    8.0674
   23.370    8.0253
   23.505    8.4676
   23.640    8.2675
   23.775    7.7830
   23.910    8.1727
   24.045    7.8778
   24.180    7.5303
   24.315    7.7409
   24.450    7.8146
   24.585    7.3618
   24.720    7.6251
   24.855    7.7304
   24.990    7.8568
   25.125    7.9937
   25.260    7.7199
   25.395    7.4250
   25.530    8.0569
   25.665    8.2149
   25.800    7.4776
   25.935    7.6567
   26.070    7.2880
   26.205    7.4250
   26.340    7.5092
   26.475    7.4566
   26.610    7.9305
   26.745    7.3618
   26.880    7.2670
   27.015    7.7936
   27.150    7.2143
   27.285    7.0353
   27.420    7.1406
   27.555    7.7409
   27.690    7.2775
   27.825    7.3723
   27.960    7.6777
   28.095    7.4882
   28.230    7.5829
   28.365    7.0037
   28.500    6.9089
   28.635    6.8878
   28.770    6.8352
   28.905    7.0563
   29.040    7.0248
   29.175    6.8984
   29.310    7.2038
   29.445    6.9089
   29.580    6.8984
   29.715    7.0985
   29.850    7.0142
   29.985    6.6351
   30.120    6.7825
   30.255    6.9932
   30.390    7.2670
   30.525    7.0458
   30.660    6.9826
   30.795    7.0879
   30.930    6.9721
   31.065    6.7615
   31.200    6.8352
   31.335    7.2459
   31.470    7.2775
   31.605    7.1511
   31.740    6.9826
   31.875    7.3302
   32.010    7.3828
   32.145    7.3512
   32.280    7.1301
   32.415    6.7088
   32.550    6.9932
   32.685    6.3928
   32.820    6.2875
   32.955    6.7088
   33.090    6.5508
   33.225    6.4876
   33.360    6.3928
   33.495    6.5403
   33.630    6.2665
   33.765    6.1401
   33.900    6.6245
   34.035    6.4982
   34.170    6.0769
   34.305    6.0664
   34.440    6.0979
   34.575    5.8136
   34.710    6.3718
   34.845    6.4560
   34.980    6.4139
   35.115    6.1927
   35.250    6.1717
   35.385    6.2559
   35.520    6.2665
   35.655    6.0979
   35.790    6.4455
   35.925    5.9189
   36.060    6.2875
   36.195    6.0348
   36.330    6.4876
   36.465    6.2033
   36.600    5.9821
   36.735    6.0348
   36.870    6.1506
   37.005    5.9821
   37.140    6.4560
   37.275    6.1190
   37.410    5.9610
   37.545    5.9716
   37.680    6.1085
   37.815    6.3928
   37.950    6.4139
   38.085    6.3718
   38.220    5.8452
   38.355    6.2665
   38.490    6.1927
   38.625    6.3086
   38.760    6.0242
   38.895    6.4244
   39.030    6.4455
   39.165    6.4455
   39.300    6.2033
   39.435    6.3718
   39.570    6.2454
   39.705    6.0032
   39.840    6.0979
   39.975    6.3718
   39.990    6.1717