File: data/MOCOF-1/PXRD/PXRD_KE-082_Cu-Ka1_film-3mm_5s-deg.xyd
    1.500   14.9763
    1.635   12.9753
    1.770   11.9221
    1.905   10.6161
    2.040    9.7736
    2.175    8.9942
    2.310    8.8257
    2.445    7.5724
    2.580    7.1617
    2.715    7.1617
    2.850    6.9510
    2.985    7.2775
    3.120    6.8562
    3.255    7.5935
    3.390    8.7309
    3.525   11.2586
    3.660   17.3144
    3.795   34.5761
    3.930   24.6972
    4.065    6.6667
    4.200    6.2665
    4.335    5.9821
    4.470    6.1401
    4.605    6.0874
    4.740    5.7188
    4.875    6.2981
    5.010    6.8141
    5.145    7.6777
    5.280   10.0685
    5.415   16.9879
    5.550   14.6814
    5.685    7.5408
    5.820    7.1722
    5.955    6.4771
    6.090    5.9084
    6.225    5.5819
    6.360    5.2238
    6.495    6.3718
    6.630    7.4882
    6.765   12.6172
    6.900    4.8868
    7.035    5.0658
    7.170    4.9816
    7.305    4.5392
    7.440    4.7077
    7.575    4.7499
    7.710    6.0137
    7.845    5.3186
    7.980    4.1496
    8.115    3.9284
    8.250    4.0758
    8.385    4.1180
    8.520    4.1390
    8.655    4.2654
    8.790    3.6862
    8.925    3.8020
    9.060    3.9810
    9.195    3.7493
    9.330    4.0969
    9.465    6.8668
    9.600    8.9205
    9.735    3.4860
    9.870    3.7388
   10.005    3.7599
   10.140    4.2338
   10.275    6.0558
   10.410    3.8125
   10.545    4.1496
   10.680    3.7072
   10.815    3.8125
   10.950    4.6130
   11.085    5.6029
   11.220    4.0126
   11.355    3.7388
   11.490    4.2022
   11.625    4.7499
   11.760    5.7083
   11.895    3.9810
   12.030    3.5808
   12.165    4.0969
   12.300    4.1390
   12.435    3.8652
   12.570    3.6230
   12.705    3.6230
   12.840    3.8863
   12.975    6.5824
   13.110    3.7493
   13.245    3.5176
   13.380    3.6651
   13.515    4.3181
   13.650    3.6335
   13.785    3.6862
   13.920    3.9179
   14.055    5.0553
   14.190    4.0758
   14.325    4.1180
   14.460    3.9179
   14.595    3.8652
   14.730    4.1285
   14.865    3.7177
   15.000    3.7493
   15.135    4.1496
   15.270    3.8125
   15.405    3.5598
   15.540    3.7283
   15.675    3.7599
   15.810    3.7704
   15.945    3.7072
   16.080    3.9389
   16.215    3.6335
   16.350    3.5282
   16.485    3.5914
   16.620    3.9916
   16.755    3.6019
   16.890    3.6651
   17.025    4.7604
   17.160    3.6440
   17.295    3.6440
   17.430    3.8757
   17.565    3.8441
   17.700    3.5282
   17.835    3.2543
   17.970    4.2233
   18.105    3.8020
   18.240    3.5176
   18.375    4.1074
   18.510    3.2649
   18.645    3.7388
   18.780    3.8757
   18.915    3.6124
   19.050    3.4860
   19.185    3.6546
   19.320    3.3491
   19.455    3.4439
   19.590    3.5492
   19.725    3.3491
   19.860    3.5808
   19.995    3.5071
   20.130    3.5808
   20.265    3.3175
   20.400    4.3181
   20.535    3.0226
   20.670    3.4755
   20.805    3.2017
   20.940    3.1806
   21.075    3.3702
   21.210    3.4544
   21.345    3.3702
   21.480    2.9805
   21.615    3.5808
   21.750    3.1280
   21.885    3.6546
   22.020    3.2227
   22.155    3.2859
   22.290    3.2017
   22.425    3.1701
   22.560    4.3602
   22.695    3.3070
   22.830    3.2543
   22.965    4.0337
   23.100    3.0542
   23.235    3.5492
   23.370    3.1069
   23.505    3.2017
   23.640    2.9384
   23.775    2.9700
   23.910    3.4334
   24.045    2.9910
   24.180    3.0648
   24.315    3.2122
   24.450    2.8120
   24.585    2.9700
   24.720    2.7804
   24.855    3.1174
   24.990    2.5276
   25.125    2.7699
   25.260    2.8120
   25.395    2.3591
   25.530    2.9279
   25.665    2.9173
   25.800    3.8125
   25.935    3.1385
   26.070    3.0332
   26.205    2.8120
   26.340    2.8647
   26.475    2.9489
   26.610    2.6540
   26.745    2.7593
   26.880    2.5066
   27.015    3.0648
   27.150    2.6224
   27.285    2.5698
   27.420    2.6330
   27.555    2.7278
   27.690    2.5908
   27.825    2.5803
   27.960    2.6119
   28.095    2.5487
   28.230    2.7804
   28.365    2.5487
   28.500    2.4855
   28.635    2.6014
   28.770    2.6751
   28.905    2.7172
   29.040    2.5803
   29.175    2.6014
   29.310    2.6646
   29.445    2.4223
   29.580    2.0853
   29.715    2.3170
   29.850    2.4645
   29.985    2.1169
   30.120    2.3697
   30.255    2.0011
   30.390    2.0221
   30.525    2.2117
   30.660    2.1485
   30.795    2.1696
   30.930    2.1064
   31.065    2.0958
   31.200    1.9063
   31.335    2.2117
   31.470    2.0958
   31.605    2.0116
   31.740    2.4013
   31.875    2.2328
   32.010    2.0537
   32.145    2.1906
   32.280    2.0011
   32.415    2.0958
   32.550    1.9379
   32.685    2.0116
   32.820    2.1696
   32.955    1.8747
   33.090    1.9063
   33.225    1.9905
   33.360    2.0537
   33.495    2.1274
   33.630    2.1590
   33.765    2.0642
   33.900    2.3486
   34.035    2.0642
   34.170    1.9695
   34.305    1.9589
   34.440    1.7062
   34.575    2.0748
   34.710    1.9800
   34.845    1.9800
   34.980    2.0432
   35.115    1.8220
   35.250    1.7378
   35.385    2.0326
   35.520    1.8009
   35.655    1.8431
   35.790    1.9589
   35.925    2.0221
   36.060    2.0221
   36.195    1.6746
   36.330    1.9168
   36.465    1.7694
   36.600    1.9379
   36.735    1.8747
   36.870    1.8536
   37.005    1.9484
   37.140    1.9484
   37.275    1.7799
   37.410    1.9589
   37.545    1.7799
   37.680    1.8747
   37.815    1.9484
   37.950    1.9273
   38.085    1.6430
   38.220    1.6851
   38.355    1.9800
   38.490    1.8325
   38.625    1.6746
   38.760    1.9589
   38.895    1.7694
   39.030    1.7272
   39.165    1.7694
   39.300    1.5903
   39.435    1.7062
   39.570    1.6746
   39.705    1.8009
   39.840    1.6535
   39.975    1.7588
   39.990    1.6535