File: data/MOCOF-1/PXRD/PXRD_KE-128_Cu-Ka1_film-3mm_5s-deg.xyd
    1.500   10.4265
    1.635    9.5419
    1.770    9.2891
    1.905    8.6572
    2.040    7.5619
    2.175    7.7199
    2.310    7.1301
    2.445    6.9721
    2.580    7.1090
    2.715    7.2038
    2.850    7.6777
    2.985    8.3412
    3.120    9.9421
    3.255   12.4381
    3.390   19.2733
    3.525   19.3576
    3.660   11.2270
    3.795   11.2480
    3.930   11.7746
    4.065   11.9115
    4.200   11.1006
    4.335    8.7730
    4.470    7.2143
    4.605    6.4244
    4.740    6.5403
    4.875    6.9089
    5.010    6.5192
    5.145    6.5298
    5.280    7.2459
    5.415    7.2459
    5.550    7.7936
    5.685    7.3091
    5.820    7.1722
    5.955    5.8978
    6.090    6.0032
    6.225    5.9610
    6.360    5.9400
    6.495    5.8241
    6.630    5.4450
    6.765    5.9084
    6.900    6.2875
    7.035    6.4455
    7.170    5.4134
    7.305    4.6972
    7.440    4.9605
    7.575    4.9921
    7.710    4.7499
    7.845    4.6656
    7.980    4.6656
    8.115    4.8131
    8.250    4.6551
    8.385    4.6024
    8.520    4.6972
    8.655    4.2233
    8.790    3.9705
    8.925    4.0969
    9.060    4.1811
    9.195    3.9705
    9.330    4.2759
    9.465    4.0442
    9.600    3.7388
    9.735    4.2970
    9.870    3.8231
   10.005    3.9600
   10.140    3.8757
   10.275    3.6756
   10.410    4.0758
   10.545    4.4866
   10.680    4.2022
   10.815    4.1496
   10.950    4.1811
   11.085    4.3813
   11.220    3.9179
   11.355    4.1706
   11.490    3.9073
   11.625    4.1601
   11.760    4.1390
   11.895    4.1074
   12.030    4.2022
   12.165    4.0021
   12.300    3.9179
   12.435    4.0126
   12.570    4.2022
   12.705    3.6546
   12.840    3.9810
   12.975    4.2022
   13.110    4.0548
   13.245    3.7177
   13.380    4.1811
   13.515    4.1601
   13.650    3.8547
   13.785    3.9600
   13.920    4.1074
   14.055    3.9494
   14.190    4.2549
   14.325    4.4339
   14.460    4.6024
   14.595    3.7809
   14.730    4.2759
   14.865    4.3075
   15.000    4.0548
   15.135    3.9600
   15.270    3.8020
   15.405    3.8547
   15.540    3.9389
   15.675    3.7704
   15.810    4.0758
   15.945    3.5071
   16.080    4.0126
   16.215    4.0232
   16.350    3.9810
   16.485    4.2443
   16.620    3.8547
   16.755    4.0021
   16.890    3.8125
   17.025    3.9810
   17.160    3.8231
   17.295    3.6440
   17.430    4.0021
   17.565    3.8863
   17.700    4.0442
   17.835    3.9284
   17.970    4.0232
   18.105    3.9284
   18.240    3.6651
   18.375    3.8231
   18.510    3.7599
   18.645    3.8441
   18.780    3.6651
   18.915    3.7072
   19.050    3.8336
   19.185    3.8125
   19.320    3.9600
   19.455    3.7493
   19.590    4.0232
   19.725    3.8863
   19.860    3.8020
   19.995    3.7072
   20.130    3.6440
   20.265    3.5492
   20.400    3.9916
   20.535    3.6651
   20.670    3.8547
   20.805    3.4966
   20.940    3.7072
   21.075    3.6124
   21.210    3.9284
   21.345    3.6335
   21.480    3.7388
   21.615    3.5914
   21.750    3.6967
   21.885    3.4860
   22.020    3.6651
   22.155    3.2965
   22.290    3.3070
   22.425    3.3913
   22.560    3.3597
   22.695    3.6019
   22.830    3.3807
   22.965    3.5598
   23.100    3.0753
   23.235    3.2122
   23.370    3.2017
   23.505    3.5282
   23.640    3.2227
   23.775    3.4650
   23.910    3.0858
   24.045    3.0648
   24.180    2.9595
   24.315    3.1174
   24.450    2.9700
   24.585    3.1385
   24.720    3.3597
   24.855    3.3597
   24.990    3.3175
   25.125    3.0648
   25.260    3.0226
   25.395    2.9173
   25.530    2.9595
   25.665    2.9595
   25.800    2.8015
   25.935    3.0226
   26.070    2.8857
   26.205    2.8541
   26.340    3.1912
   26.475    2.9068
   26.610    3.0332
   26.745    2.8857
   26.880    2.7699
   27.015    2.7488
   27.150    3.1069
   27.285    2.6962
   27.420    2.9068
   27.555    2.7909
   27.690    2.8120
   27.825    2.4329
   27.960    2.8015
   28.095    2.5698
   28.230    2.7593
   28.365    2.7067
   28.500    2.7278
   28.635    2.6646
   28.770    2.7172
   28.905    2.3907
   29.040    2.9068
   29.175    2.5908
   29.310    2.3802
   29.445    2.4539
   29.580    2.6435
   29.715    2.5698
   29.850    2.2117
   29.985    2.6330
   30.120    2.3381
   30.255    2.1906
   30.390    2.3275
   30.525    2.3907
   30.660    2.3065
   30.795    2.3170
   30.930    2.3170
   31.065    2.3486
   31.200    2.2222
   31.335    2.4750
   31.470    2.1169
   31.605    2.3486
   31.740    2.4961
   31.875    2.3170
   32.010    2.3170
   32.145    2.3697
   32.280    2.2012
   32.415    2.1064
   32.550    1.9905
   32.685    2.0116
   32.820    2.1064
   32.955    2.1801
   33.090    2.1064
   33.225    1.8747
   33.360    1.9063
   33.495    1.9589
   33.630    2.0326
   33.765    1.9273
   33.900    2.0221
   34.035    1.9379
   34.170    2.0221
   34.305    2.0116
   34.440    1.9379
   34.575    2.1801
   34.710    1.9800
   34.845    1.9905
   34.980    2.1064
   35.115    2.0221
   35.250    1.8747
   35.385    2.0748
   35.520    1.9800
   35.655    2.0116
   35.790    1.7167
   35.925    2.1801
   36.060    2.1064
   36.195    2.0432
   36.330    1.9273
   36.465    1.9800
   36.600    2.0853
   36.735    2.0432
   36.870    1.9063
   37.005    2.0326
   37.140    2.1064
   37.275    1.9273
   37.410    1.9484
   37.545    1.9379
   37.680    1.9273
   37.815    2.1380
   37.950    2.0853
   38.085    1.8325
   38.220    1.9168
   38.355    1.8325
   38.490    1.8325
   38.625    1.7694
   38.760    2.0537
   38.895    2.1801
   39.030    1.8852
   39.165    1.8536
   39.300    1.8957
   39.435    1.8747
   39.570    1.8009
   39.705    2.1169
   39.840    1.8115
   39.975    1.8957
   39.990    1.8747