File: data/MOCOF-1/PXRD/PXRD_KE-077_Cu-Ka1_capillary-1mm_5s-deg.xyd
    1.500   16.3033
    1.635   17.6935
    1.770   18.3781
    1.905   20.1580
    2.040   23.5598
    2.175   28.6467
    2.310   35.4397
    2.445   45.1290
    2.580   64.4339
    2.715  109.8368
    2.850   69.9842
    2.985   19.5261
    3.120    7.5724
    3.255    5.5714
    3.390    4.6445
    3.525    4.2970
    3.660    4.2127
    3.795    4.5182
    3.930    4.4971
    4.065    5.1711
    4.200    5.0553
    4.335    6.3928
    4.470    7.4460
    4.605   10.1106
    4.740   15.1869
    4.875   15.8189
    5.010   12.3433
    5.145    5.9294
    5.280    5.8557
    5.415    7.4144
    5.550   11.1638
    5.685    7.0142
    5.820    5.4871
    5.955    4.1601
    6.090    3.4018
    6.225    3.1806
    6.360    3.1174
    6.495    3.1490
    6.630    3.1385
    6.765    3.1280
    6.900    3.7177
    7.035    4.5814
    7.170    5.7820
    7.305    7.3934
    7.440    7.5092
    7.575    7.3512
    7.710    5.8662
    7.845    3.6862
    7.980    3.3281
    8.115    3.4018
    8.250    3.2859
    8.385    3.2017
    8.520    3.0542
    8.655    2.6856
    8.790    2.9595
    8.925    2.7804
    9.060    2.9595
    9.195    2.9489
    9.330    3.0121
    9.465    3.5914
    9.600    3.4018
    9.735    3.2754
    9.870    3.8968
   10.005    3.6335
   10.140    3.9389
   10.275    3.3702
   10.410    3.2859
   10.545    3.3597
   10.680    3.0542
   10.815    2.7067
   10.950    2.7172
   11.085    2.6540
   11.220    2.6962
   11.355    2.7593
   11.490    2.8752
   11.625    2.7172
   11.760    2.7067
   11.895    2.6224
   12.030    2.8436
   12.165    2.6751
   12.300    2.8857
   12.435    3.1069
   12.570    3.2649
   12.705    2.8752
   12.840    2.8015
   12.975    2.7804
   13.110    2.8963
   13.245    2.8541
   13.380    2.6435
   13.515    2.8541
   13.650    2.9910
   13.785    2.9910
   13.920    2.8963
   14.055    2.9489
   14.190    2.8225
   14.325    2.8857
   14.460    3.0016
   14.595    2.7804
   14.730    3.0753
   14.865    3.1385
   15.000    3.4123
   15.135    3.0226
   15.270    3.3386
   15.405    3.1912
   15.540    2.9805
   15.675    3.1385
   15.810    3.0016
   15.945    2.7172
   16.080    2.8752
   16.215    2.8647
   16.350    3.0648
   16.485    3.0542
   16.620    3.0121
   16.755    2.9910
   16.890    3.0648
   17.025    2.8015
   17.160    2.9595
   17.295    2.8752
   17.430    2.8541
   17.565    2.9910
   17.700    2.8331
   17.835    2.6224
   17.970    2.8647
   18.105    2.6330
   18.240    2.7804
   18.375    2.7067
   18.510    2.9805
   18.645    3.0226
   18.780    2.7278
   18.915    3.0753
   19.050    2.9068
   19.185    3.0226
   19.320    3.2859
   19.455    2.9595
   19.590    3.1174
   19.725    3.0964
   19.860    3.0121
   19.995    2.9805
   20.130    2.9489
   20.265    2.7067
   20.400    3.3491
   20.535    3.0858
   20.670    2.8752
   20.805    2.9279
   20.940    2.9279
   21.075    3.0858
   21.210    2.9805
   21.345    2.9384
   21.480    2.7804
   21.615    2.8857
   21.750    3.0016
   21.885    2.9173
   22.020    2.8541
   22.155    3.0648
   22.290    2.9068
   22.425    2.8752
   22.560    3.0016
   22.695    2.9384
   22.830    3.0542
   22.965    2.8225
   23.100    2.7488
   23.235    3.0753
   23.370    2.7909
   23.505    2.9489
   23.640    2.8436
   23.775    2.8015
   23.910    2.7067
   24.045    2.7172
   24.180    3.0437
   24.315    2.8436
   24.450    2.9068
   24.585    2.9173
   24.720    2.8857
   24.855    3.2227
   24.990    3.3597
   25.125    3.6862
   25.260    3.8652
   25.395    3.0858
   25.530    3.1280
   25.665    3.2965
   25.800    3.4334
   25.935    3.1280
   26.070    2.8752
   26.205    3.2438
   26.340    3.1490
   26.475    2.4223
   26.610    2.7383
   26.745    2.8120
   26.880    2.7278
   27.015    2.6646
   27.150    2.7593
   27.285    2.4961
   27.420    2.6646
   27.555    2.5171
   27.690    2.4223
   27.825    2.3697
   27.960    2.5487
   28.095    2.3381
   28.230    2.4855
   28.365    2.5803
   28.500    2.4118
   28.635    2.4645
   28.770    2.2117
   28.905    2.4329
   29.040    2.1801
   29.175    2.5487
   29.310    2.1485
   29.445    2.2222
   29.580    2.4013
   29.715    2.1696
   29.850    2.1696
   29.985    2.2433
   30.120    2.0853
   30.255    2.3907
   30.390    2.3591
   30.525    2.0116
   30.660    2.0748
   30.795    2.2328
   30.930    2.2959
   31.065    2.0642
   31.200    2.1064
   31.335    2.1485
   31.470    1.9168
   31.605    2.0326
   31.740    2.2433
   31.875    2.0326
   32.010    1.8957
   32.145    1.8536
   32.280    1.8852
   32.415    2.3065
   32.550    1.7904
   32.685    1.9273
   32.820    1.8536
   32.955    1.8852
   33.090    1.9063
   33.225    1.8009
   33.360    1.7799
   33.495    1.7378
   33.630    1.5166
   33.765    1.6324
   33.900    1.5798
   34.035    1.4850
   34.170    1.6430
   34.305    1.4639
   34.440    1.4113
   34.575    1.4218
   34.710    1.4218
   34.845    1.3165
   34.980    1.4639
   35.115    1.5692
   35.250    1.5798
   35.385    1.3902
   35.520    1.5166
   35.655    1.3797
   35.790    1.3375
   35.925    1.4534
   36.060    1.4639
   36.195    1.5377
   36.330    1.3691
   36.465    1.1690
   36.600    1.3481
   36.735    1.3375
   36.870    1.2638
   37.005    1.3165
   37.140    1.2954
   37.275    1.1374
   37.410    1.2849
   37.545    1.1374
   37.680    1.3691
   37.815    1.2112
   37.950    1.1690
   38.085    1.0427
   38.220    1.0742
   38.355    1.1164
   38.490    1.0953
   38.625    1.1164
   38.760    1.0427
   38.895    1.0427
   39.030    1.1164
   39.165    0.9900
   39.300    1.1901
   39.435    1.1164
   39.570    1.2849
   39.705    1.2428
   39.840    1.1164
   39.975    1.0005
   39.990    1.1164