File: data/MOCOF-1/PXRD/PXRD_KE-040_Cu-Ka1_film-3mm_5s-deg.xyd
    1.500    9.2522
    1.635    9.0153
    1.770    8.6783
    1.905    7.9989
    2.040    7.5777
    2.175    7.3565
    2.310    6.9774
    2.445    6.7667
    2.580    6.7878
    2.715    6.7615
    2.850    6.8615
    2.985    7.4829
    3.120    8.5677
    3.255   10.9637
    3.390   14.4339
    3.525   16.4297
    3.660   11.3586
    3.795   10.8478
    3.930   10.3160
    4.065    8.2622
    4.200    6.7351
    4.335    6.1611
    4.470    6.0190
    4.605    6.0453
    4.740    6.2401
    4.875    6.0084
    5.010    6.2823
    5.145    6.8720
    5.280    7.0827
    5.415    7.8094
    5.550    7.9831
    5.685    7.9937
    5.820    7.1195
    5.955    6.7983
    6.090    6.2401
    6.225    5.9926
    6.360    5.4976
    6.495    5.6819
    6.630    5.2080
    6.765    5.6187
    6.900    5.9558
    7.035    6.1137
    7.170    5.2343
    7.305    4.8289
    7.440    4.8183
    7.575    4.5182
    7.710    4.6603
    7.845    4.8920
    7.980    4.3918
    8.115    4.1601
    8.250    3.8810
    8.385    3.7493
    8.520    3.5018
    8.655    3.5756
    8.790    3.6335
    8.925    3.5545
    9.060    3.4702
    9.195    3.4966
    9.330    3.2385
    9.465    3.4071
    9.600    3.3860
    9.735    3.2807
    9.870    3.4387
   10.005    3.1648
   10.140    3.3017
   10.275    3.3965
   10.410    3.3597
   10.545    3.5650
   10.680    3.5808
   10.815    3.6546
   10.950    3.5387
   11.085    3.6230
   11.220    3.6862
   11.355    3.6440
   11.490    3.7177
   11.625    3.5650
   11.760    3.6809
   11.895    3.5703
   12.030    3.5018
   12.165    3.5703
   12.300    3.4018
   12.435    3.4334
   12.570    3.5124
   12.705    3.3913
   12.840    3.3017
   12.975    3.3649
   13.110    3.4755
   13.245    3.3860
   13.380    3.3228
   13.515    3.4071
   13.650    3.3860
   13.785    3.2754
   13.920    3.4808
   14.055    3.5703
   14.190    3.6862
   14.325    3.6914
   14.460    3.7177
   14.595    3.7388
   14.730    3.4966
   14.865    3.5282
   15.000    3.6177
   15.135    3.4755
   15.270    3.3965
   15.405    3.3386
   15.540    3.3965
   15.675    3.2807
   15.810    3.3439
   15.945    3.4334
   16.080    3.1280
   16.215    3.4755
   16.350    3.1438
   16.485    3.5387
   16.620    3.1859
   16.755    3.0806
   16.890    3.3755
   17.025    3.4966
   17.160    3.2859
   17.295    3.4808
   17.430    3.3597
   17.565    3.1701
   17.700    3.3175
   17.835    3.3017
   17.970    3.2491
   18.105    3.2859
   18.240    3.1438
   18.375    3.4123
   18.510    3.2017
   18.645    3.3386
   18.780    3.0332
   18.915    3.1016
   19.050    3.2280
   19.185    3.0964
   19.320    3.0016
   19.455    2.9647
   19.590    3.0332
   19.725    3.1122
   19.860    2.8489
   19.995    2.8647
   20.130    2.8699
   20.265    2.9015
   20.400    2.8963
   20.535    3.0226
   20.670    2.7699
   20.805    2.9910
   20.940    2.8225
   21.075    2.8015
   21.210    2.7909
   21.345    2.8331
   21.480    2.7383
   21.615    2.7067
   21.750    2.8436
   21.885    2.7172
   22.020    2.8489
   22.155    2.6330
   22.290    2.8383
   22.425    2.5592
   22.560    2.5224
   22.695    2.6804
   22.830    2.6119
   22.965    2.7225
   23.100    2.4592
   23.235    2.6119
   23.370    2.4645
   23.505    2.6224
   23.640    2.4697
   23.775    2.4118
   23.910    2.4908
   24.045    2.2854
   24.180    2.3328
   24.315    2.3117
   24.450    2.4013
   24.585    2.3697
   24.720    2.4908
   24.855    2.4487
   24.990    2.2170
   25.125    2.2854
   25.260    2.2696
   25.395    2.2801
   25.530    2.2749
   25.665    2.2222
   25.800    2.1169
   25.935    2.0537
   26.070    2.2012
   26.205    2.1906
   26.340    2.1169
   26.475    2.2854
   26.610    2.0326
   26.745    2.1169
   26.880    2.2170
   27.015    2.0642
   27.150    1.9063
   27.285    1.9115
   27.420    1.8431
   27.555    2.0484
   27.690    1.9537
   27.825    1.9379
   27.960    1.9273
   28.095    1.9010
   28.230    1.7272
   28.365    1.9273
   28.500    1.8220
   28.635    1.9537
   28.770    1.8799
   28.905    1.9695
   29.040    1.8009
   29.175    1.7904
   29.310    1.7430
   29.445    1.6798
   29.580    1.6272
   29.715    1.6166
   29.850    1.6166
   29.985    1.4534
   30.120    1.7430
   30.255    1.5956
   30.390    1.5482
   30.525    1.5061
   30.660    1.5587
   30.795    1.5534
   30.930    1.5377
   31.065    1.4113
   31.200    1.2533
   31.335    1.3533
   31.470    1.4007
   31.605    1.5219
   31.740    1.3375
   31.875    1.3691
   32.010    1.3586
   32.145    1.4903
   32.280    1.2954
   32.415    1.3744
   32.550    1.4376
   32.685    1.3112
   32.820    1.4218
   32.955    1.2164
   33.090    1.0479
   33.225    1.2902
   33.360    1.2270
   33.495    1.3639
   33.630    1.1058
   33.765    1.1427
   33.900    1.2217
   34.035    1.2586
   34.170    1.2691
   34.305    1.2006
   34.440    1.2428
   34.575    1.1848
   34.710    1.1796
   34.845    1.2954
   34.980    1.1743
   35.115    1.1374
   35.250    1.0742
   35.385    1.1690
   35.520    1.1690
   35.655    1.0953
   35.790    1.1322
   35.925    1.1848
   36.060    1.2112
   36.195    1.1954
   36.330    1.2059
   36.465    1.1638
   36.600    1.1585
   36.735    1.1058
   36.870    1.1058
   37.005    1.0795
   37.140    1.0795
   37.275    1.1743
   37.410    1.0848
   37.545    1.1164
   37.680    1.1585
   37.815    1.1164
   37.950    1.0795
   38.085    1.0058
   38.220    1.0216
   38.355    1.0269
   38.490    1.0690
   38.625    1.0269
   38.760    1.0374
   38.895    0.9953
   39.030    1.1322
   39.165    1.0005
   39.300    0.9847
   39.435    1.0585
   39.570    1.0163
   39.705    1.0479
   39.840    0.8952
   39.975    1.0427
   39.990    1.1058