File: data/MOCOF-1/PXRD/PXRD_KE-184_Cu-Ka1_capillary-1mm_5s-deg.xyd
    1.500    7.9410
    1.635    7.2565
    1.770    6.5613
    1.905    6.1927
    2.040    5.7188
    2.175    5.3607
    2.310    5.8768
    2.445    5.5503
    2.580    6.0664
    2.715    7.5935
    2.850    8.9415
    2.985   13.2175
    3.120   18.7256
    3.255   31.8694
    3.390   63.9705
    3.525   53.9126
    3.660   17.9568
    3.795   18.6414
    3.930   27.4460
    4.065   33.6809
    4.200   28.5413
    4.335   14.6814
    4.470    7.0985
    4.605    5.0553
    4.740    3.9389
    4.875    3.7493
    5.010    3.5071
    5.145    3.3386
    5.280    3.3386
    5.415    3.2017
    5.550    2.9489
    5.685    2.9700
    5.820    2.8120
    5.955    2.9700
    6.090    2.9068
    6.225    2.7593
    6.360    2.8436
    6.495    3.1701
    6.630    3.4334
    6.765    4.5076
    6.900    8.9100
    7.035    7.0563
    7.170    3.6651
    7.305    3.3386
    7.440    2.9384
    7.575    3.1912
    7.710    3.3913
    7.845    3.6440
    7.980    4.4444
    8.115    4.7183
    8.250    5.0974
    8.385    4.8341
    8.520    4.3918
    8.655    3.9705
    8.790    3.4650
    8.925    3.0016
    9.060    2.7383
    9.195    2.6646
    9.330    2.8647
    9.465    3.0226
    9.600    2.6856
    9.735    2.5908
    9.870    2.5908
   10.005    2.6119
   10.140    2.4645
   10.275    2.7593
   10.410    2.9700
   10.545    2.8225
   10.680    2.8120
   10.815    2.5592
   10.950    2.3591
   11.085    2.6751
   11.220    2.4750
   11.355    2.6540
   11.490    2.6646
   11.625    2.7278
   11.760    2.7909
   11.895    2.6751
   12.030    2.8752
   12.165    2.7278
   12.300    3.0753
   12.435    2.6119
   12.570    3.0437
   12.705    2.9489
   12.840    2.8752
   12.975    2.8015
   13.110    2.6856
   13.245    2.6224
   13.380    2.6119
   13.515    2.8647
   13.650    2.7909
   13.785    2.6330
   13.920    3.0121
   14.055    2.8541
   14.190    2.7909
   14.325    2.8225
   14.460    2.4329
   14.595    2.6962
   14.730    2.3065
   14.865    2.4961
   15.000    2.5171
   15.135    2.6330
   15.270    2.5698
   15.405    2.7699
   15.540    2.8015
   15.675    2.4645
   15.810    2.7593
   15.945    2.8541
   16.080    2.9068
   16.215    2.6962
   16.350    2.8541
   16.485    2.5171
   16.620    2.7067
   16.755    2.5487
   16.890    2.5382
   17.025    2.6435
   17.160    2.4750
   17.295    2.3802
   17.430    2.5382
   17.565    2.5487
   17.700    2.7488
   17.835    2.7172
   17.970    2.7699
   18.105    2.8752
   18.240    2.6962
   18.375    2.4329
   18.510    2.6856
   18.645    2.5592
   18.780    2.6751
   18.915    2.5276
   19.050    2.5487
   19.185    2.5487
   19.320    2.5592
   19.455    2.9279
   19.590    2.6330
   19.725    2.7804
   19.860    2.8436
   19.995    2.7699
   20.130    3.0332
   20.265    3.0648
   20.400    3.1174
   20.535    2.9279
   20.670    2.9068
   20.805    2.9173
   20.940    2.8120
   21.075    2.9489
   21.210    2.8647
   21.345    2.9173
   21.480    3.0753
   21.615    3.0542
   21.750    2.9700
   21.885    2.9910
   22.020    2.8752
   22.155    3.0964
   22.290    3.0121
   22.425    2.8436
   22.560    2.6540
   22.695    2.6435
   22.830    2.7488
   22.965    2.6435
   23.100    2.7593
   23.235    2.6540
   23.370    2.6435
   23.505    2.6224
   23.640    2.7067
   23.775    2.8120
   23.910    2.7067
   24.045    2.6646
   24.180    2.7909
   24.315    2.7488
   24.450    2.5276
   24.585    2.9595
   24.720    2.7383
   24.855    2.6751
   24.990    2.5698
   25.125    2.7067
   25.260    2.6119
   25.395    2.3381
   25.530    2.3381
   25.665    2.4855
   25.800    2.7383
   25.935    2.2643
   26.070    2.3591
   26.205    2.5171
   26.340    2.5171
   26.475    2.2117
   26.610    2.3381
   26.745    2.4539
   26.880    2.4645
   27.015    2.2328
   27.150    2.2959
   27.285    2.4750
   27.420    2.2959
   27.555    2.5803
   27.690    2.4750
   27.825    2.1696
   27.960    2.5171
   28.095    2.4539
   28.230    2.3170
   28.365    2.4750
   28.500    2.6646
   28.635    2.3065
   28.770    2.5382
   28.905    2.3275
   29.040    2.2959
   29.175    2.2538
   29.310    2.3170
   29.445    2.4223
   29.580    2.1801
   29.715    2.0432
   29.850    2.4434
   29.985    2.2433
   30.120    2.2538
   30.255    2.2012
   30.390    2.1590
   30.525    2.3591
   30.660    2.0326
   30.795    2.2749
   30.930    2.0537
   31.065    2.1801
   31.200    2.1064
   31.335    2.2643
   31.470    2.2854
   31.605    2.2433
   31.740    2.2433
   31.875    2.2012
   32.010    2.1906
   32.145    2.1485
   32.280    2.3275
   32.415    2.2328
   32.550    2.2117
   32.685    2.0642
   32.820    1.9589
   32.955    2.1696
   33.090    2.2433
   33.225    1.9800
   33.360    1.9800
   33.495    1.9695
   33.630    1.9168
   33.765    2.0432
   33.900    2.0537
   34.035    2.0011
   34.170    1.9484
   34.305    1.9063
   34.440    1.9273
   34.575    1.8009
   34.710    1.8325
   34.845    1.8325
   34.980    1.8431
   35.115    1.7799
   35.250    1.8115
   35.385    1.7799
   35.520    1.7799
   35.655    1.9273
   35.790    2.0326
   35.925    1.7167
   36.060    2.0326
   36.195    1.6851
   36.330    2.0221
   36.465    1.7694
   36.600    1.8009
   36.735    1.7483
   36.870    1.6219
   37.005    1.8115
   37.140    1.8009
   37.275    1.6851
   37.410    1.6851
   37.545    1.6956
   37.680    1.5166
   37.815    1.6640
   37.950    1.8747
   38.085    1.5692
   38.220    1.7378
   38.355    1.7062
   38.490    1.7694
   38.625    1.9063
   38.760    1.7694
   38.895    1.5903
   39.030    1.7483
   39.165    1.7483
   39.300    1.8220
   39.435    1.7483
   39.570    1.9168
   39.705    1.6851
   39.840    1.6640
   39.975    1.6640
   39.990    1.6640