File: data/MOCOF-1/PXRD/PXRD_KE-154_Cu-Ka1_capillary-1mm_5s-deg.xyd
    1.500   43.7283
    1.635   40.7372
    1.770   37.0300
    1.905   34.9342
    2.040   34.0600
    2.175   32.9015
    2.310   33.1016
    2.445   34.1338
    2.580   36.9352
    2.715   42.7909
    2.850   49.9315
    2.985   60.6424
    3.120   80.3476
    3.255  111.1532
    3.390  173.2280
    3.525  152.0906
    3.660   72.0906
    3.795   70.3844
    3.930   81.1059
    4.065   85.6240
    4.200   65.1080
    4.335   36.6930
    4.470   23.3702
    4.605   16.7878
    4.740   14.0390
    4.875   12.6277
    5.010   11.1216
    5.145   10.7320
    5.280   10.3844
    5.415   10.4265
    5.550    9.5313
    5.685    9.2470
    5.820    9.8789
    5.955    9.1417
    6.090    9.2470
    6.225    9.3207
    6.360   10.0369
    6.495   11.2586
    6.630   12.8067
    6.765   14.9974
    6.900   23.8652
    7.035   20.4318
    7.170   12.2696
    7.305   11.5008
    7.440   11.0479
    7.575   11.0269
    7.710   11.9221
    7.845   12.7014
    7.980   13.3544
    8.115   14.1232
    8.250   14.7762
    8.385   13.6177
    8.520   12.3539
    8.655   11.1216
    8.790   10.2264
    8.925    9.4365
    9.060    8.8889
    9.195    8.8257
    9.330    8.7098
    9.465    8.3939
    9.600    8.4150
    9.735    8.5519
    9.870    8.3623
   10.005    8.8362
   10.140    8.3834
   10.275    8.6045
   10.410    8.6361
   10.545    8.8257
   10.680    8.5308
   10.815    8.1306
   10.950    8.0463
   11.085    7.6988
   11.220    8.6151
   11.355    8.2043
   11.490    8.1517
   11.625    8.2780
   11.760    8.5729
   11.895    8.8046
   12.030    8.5413
   12.165    9.1417
   12.300    8.9415
   12.435    9.2891
   12.570    8.5413
   12.705    9.6893
   12.840    8.1833
   12.975    8.5729
   13.110    8.7098
   13.245    9.0047
   13.380    8.5308
   13.515    8.2780
   13.650    8.5940
   13.785    8.5624
   13.920    8.4992
   14.055    8.1411
   14.190    8.5624
   14.325    8.0990
   14.460    8.1095
   14.595    8.0358
   14.730    8.0990
   14.865    8.1411
   15.000    8.2780
   15.135    7.7409
   15.270    8.4781
   15.405    7.8989
   15.540    8.4150
   15.675    8.2780
   15.810    8.0042
   15.945    8.1833
   16.080    8.0042
   16.215    8.2464
   16.350    7.9410
   16.485    8.1411
   16.620    7.8462
   16.755    8.0042
   16.890    7.9726
   17.025    8.0990
   17.160    7.7304
   17.295    7.7199
   17.430    8.1833
   17.565    8.3412
   17.700    8.2570
   17.835    8.0463
   17.970    8.2464
   18.105    8.3518
   18.240    8.5624
   18.375    8.0253
   18.510    8.0253
   18.645    8.2359
   18.780    8.3518
   18.915    8.2254
   19.050    8.1727
   19.185    8.3412
   19.320    8.6467
   19.455    8.3939
   19.590    8.4255
   19.725    9.2364
   19.860    9.0679
   19.995    8.7625
   20.130    8.9837
   20.265    8.8362
   20.400    8.7941
   20.535    9.1206
   20.670    9.2259
   20.805    9.2575
   20.940    9.4997
   21.075    9.2680
   21.210    9.1311
   21.345    9.2575
   21.480    8.4887
   21.615    9.1101
   21.750    9.0785
   21.885    9.1311
   22.020    8.9837
   22.155    9.1206
   22.290    9.0574
   22.425    8.7730
   22.560    8.1306
   22.695    8.8573
   22.830    8.5624
   22.965    8.5519
   23.100    8.0674
   23.235    8.5835
   23.370    8.6045
   23.505    9.0258
   23.640    8.4360
   23.775    8.1517
   23.910    8.4992
   24.045    8.6467
   24.180    8.6151
   24.315    8.5097
   24.450    8.2043
   24.585    8.6361
   24.720    8.4044
   24.855    8.0885
   24.990    8.0990
   25.125    8.3518
   25.260    8.1306
   25.395    7.9305
   25.530    8.1095
   25.665    8.0990
   25.800    7.6145
   25.935    7.8568
   26.070    8.4360
   26.205    7.7514
   26.340    7.6461
   26.475    7.5619
   26.610    7.8778
   26.745    7.6567
   26.880    7.7093
   27.015    7.4671
   27.150    7.6883
   27.285    7.5513
   27.420    7.4144
   27.555    7.4671
   27.690    7.8041
   27.825    7.6567
   27.960    7.5408
   28.095    8.0147
   28.230    7.7936
   28.365    7.7199
   28.500    7.6356
   28.635    7.7936
   28.770    7.7199
   28.905    7.5408
   29.040    7.5408
   29.175    7.0774
   29.310    7.6040
   29.445    7.5197
   29.580    7.4355
   29.715    7.0774
   29.850    7.1195
   29.985    7.6356
   30.120    7.1722
   30.255    7.3723
   30.390    6.8246
   30.525    7.0037
   30.660    7.5513
   30.795    7.4039
   30.930    7.2670
   31.065    7.2459
   31.200    6.9194
   31.335    7.3091
   31.470    6.9826
   31.605    6.8878
   31.740    7.1933
   31.875    7.5619
   32.010    7.6461
   32.145    7.1301
   32.280    7.1195
   32.415    7.0142
   32.550    7.1090
   32.685    7.2038
   32.820    6.6035
   32.955    7.2565
   33.090    7.0879
   33.225    6.9721
   33.360    6.5508
   33.495    7.0248
   33.630    7.2143
   33.765    6.6035
   33.900    6.7509
   34.035    6.8141
   34.170    6.7720
   34.305    6.7404
   34.440    6.9721
   34.575    6.6667
   34.710    6.5403
   34.845    6.5403
   34.980    6.8773
   35.115    6.6667
   35.250    7.1301
   35.385    7.0879
   35.520    6.8036
   35.655    6.4455
   35.790    6.4350
   35.925    6.5298
   36.060    6.6456
   36.195    6.4455
   36.330    6.7930
   36.465    7.0248
   36.600    6.9089
   36.735    6.7825
   36.870    6.4876
   37.005    6.3928
   37.140    6.8457
   37.275    6.5508
   37.410    6.2138
   37.545    6.5298
   37.680    6.2033
   37.815    7.1090
   37.950    6.0242
   38.085    6.9300
   38.220    6.2770
   38.355    6.2665
   38.490    6.3191
   38.625    6.3086
   38.760    6.2770
   38.895    6.7299
   39.030    6.5298
   39.165    6.2454
   39.300    6.5719
   39.435    6.4455
   39.570    6.0137
   39.705    6.1717
   39.840    6.3402
   39.975    6.1401
   39.990    6.5298