File: data/MOCOF-1/PXRD/PXRD_KE-306_Cu-Ka1_capillary-1mm_48s-deg.xyd
    1.500    4.0657
    1.635    4.1184
    1.770    4.0197
    1.905    4.1173
    2.040    4.0723
    2.175    4.0262
    2.310    4.1074
    2.445    3.9220
    2.580    3.9615
    2.715    3.9922
    2.850    3.9571
    2.985    3.9637
    3.120    3.9889
    3.255    3.9714
    3.390    3.9154
    3.525    4.0010
    3.660    3.9341
    3.795    3.9637
    3.930    3.9593
    4.065    3.9001
    4.200    3.9473
    4.335    3.9440
    4.470    3.9319
    4.605    3.9747
    4.740    4.0032
    4.875    4.0394
    5.010    3.9045
    5.145    3.9056
    5.280    4.0635
    5.415    4.0109
    5.550    4.0230
    5.685    4.0284
    5.820    3.9505
    5.955    4.0855
    6.090    4.0668
    6.225    4.0054
    6.360    3.9911
    6.495    3.9385
    6.630    4.1458
    6.765    4.0921
    6.900    4.1228
    7.035    4.0767
    7.170    4.1436
    7.305    4.0921
    7.440    4.0438
    7.575    4.1019
    7.710    4.1425
    7.845    4.1864
    7.980    4.1612
    8.115    4.2413
    8.250    4.2446
    8.385    4.2950
    8.520    4.3674
    8.655    4.4124
    8.790    4.4596
    8.925    4.3718
    9.060    4.5221
    9.195    4.4563
    9.330    4.5210
    9.465    4.5068
    9.600    4.5814
    9.735    4.6527
    9.870    4.6691
   10.005    4.6505
   10.140    4.8249
   10.275    4.8150
   10.410    4.9489
   10.545    4.8765
   10.680    4.9116
   10.815    4.8852
   10.950    5.0849
   11.085    4.9642
   11.220    5.0619
   11.355    5.0871
   11.490    5.2122
   11.625    5.2615
   11.760    5.4349
   11.895    5.4294
   12.030    5.5325
   12.165    5.5248
   12.300    5.7048
   12.435    5.7881
   12.570    5.8605
   12.705    5.9999
   12.840    5.9768
   12.975    6.1293
   13.110    6.2796
   13.245    6.3970
   13.380    6.5232
   13.515    6.7316
   13.650    6.8940
   13.785    6.9521
   13.920    7.1671
   14.055    7.5588
   14.190    7.7365
   14.325    7.9197
   14.460    8.1929
   14.595    8.3871
   14.730    8.6065
   14.865    8.9696
   15.000    9.2812
   15.135    9.5445
   15.270    9.9987
   15.405   10.2598
   15.540   10.7249
   15.675   11.3755
   15.810   11.7364
   15.945   12.2828
   16.080   12.8906
   16.215   13.5192
   16.350   14.0699
   16.485   14.8817
   16.620   15.3129
   16.755   16.2838
   16.890   17.2119
   17.025   18.0007
   17.160   19.2097
   17.295   20.1795
   17.430   20.8882
   17.565   22.1838
   17.700   23.4180
   17.835   24.3012
   17.970   25.3840
   18.105   26.4108
   18.240   27.2007
   18.375   28.4942
   18.510   28.9484
   18.645   29.3411
   18.780   29.5967
   18.915   30.0290
   19.050   30.1069
   19.185   29.8644
   19.320   29.3115
   19.455   28.5600
   19.590   27.8293
   19.725   26.7597
   19.860   25.7339
   19.995   25.0055
   20.130   23.9896
   20.265   22.7927
   20.400   21.6825
   20.535   20.5404
   20.670   19.8174
   20.805   18.7061
   20.940   17.6288
   21.075   16.9453
   21.210   16.0677
   21.345   15.2756
   21.480   14.6162
   21.615   14.0238
   21.750   13.4314
   21.885   12.8708
   22.020   12.2927
   22.155   11.7814
   22.290   11.3185
   22.425   10.9136
   22.560   10.6712
   22.695   10.3223
   22.830    9.8659
   22.965    9.4940
   23.100    9.3679
   23.235    9.0344
   23.370    8.9148
   23.505    8.5571
   23.640    8.4968
   23.775    8.1359
   23.910    8.0569
   24.045    7.7157
   24.180    7.6455
   24.315    7.5094
   24.450    7.3569
   24.585    7.1979
   24.720    7.1035
   24.855    7.0520
   24.990    6.8611
   25.125    6.7810
   25.260    6.5506
   25.395    6.4935
   25.530    6.4661
   25.665    6.3060
   25.800    6.4003
   25.935    6.2083
   26.070    6.2467
   26.205    6.2862
   26.340    6.1194
   26.475    5.9681
   26.610    5.8474
   26.745    5.9242
   26.880    5.8737
   27.015    5.8265
   27.150    5.7037
   27.285    5.7596
   27.420    5.6609
   27.555    5.6455
   27.690    5.5929
   27.825    5.5665
   27.960    5.5062
   28.095    5.6751
   28.230    5.4941
   28.365    5.5051
   28.500    5.4327
   28.635    5.3976
   28.770    5.4075
   28.905    5.4305
   29.040    5.3998
   29.175    5.3976
   29.310    5.3987
   29.445    5.2396
   29.580    5.3998
   29.715    5.2966
   29.850    5.2056
   29.985    5.2604
   30.120    5.2253
   30.255    5.3021
   30.390    5.2396
   30.525    5.2857
   30.660    5.0498
   30.795    5.2418
   30.930    5.1343
   31.065    5.2056
   31.200    5.1935
   31.335    5.1518
   31.470    5.0443
   31.605    5.1628
   31.740    5.1431
   31.875    4.9840
   32.010    5.1321
   32.145    5.2045
   32.280    5.0344
   32.415    5.0553
   32.550    5.0509
   32.685    4.8787
   32.820    5.0059
   32.955    4.9390
   33.090    4.9939
   33.225    5.0366
   33.360    4.9434
   33.495    4.8600
   33.630    4.8150
   33.765    4.9939
   33.900    4.9236
   34.035    4.9335
   34.170    4.7744
   34.305    4.8304
   34.440    4.8611
   34.575    4.8348
   34.710    4.7273
   34.845    4.6274
   34.980    4.6538
   35.115    4.7569
   35.250    4.6658
   35.385    4.5759
   35.520    4.6362
   35.655    4.5978
   35.790    4.6823
   35.925    4.5539
   36.060    4.5945
   36.195    4.4914
   36.330    4.4684
   36.465    4.5210
   36.600    4.5386
   36.735    4.4706
   36.870    4.3740
   37.005    4.4102
   37.140    4.3367
   37.275    4.3784
   37.410    4.3312
   37.545    4.2687
   37.680    4.3685
   37.815    4.3268
   37.950    4.2413
   38.085    4.2468
   38.220    4.1129
   38.355    4.1864
   38.490    4.3082
   38.625    4.2116
   38.760    4.1491
   38.895    4.1283
   39.030    4.1667
   39.165    4.1480
   39.300    4.0976
   39.435    4.1327
   39.570    4.0240
   39.705    4.0438
   39.840    3.9484
   39.975    4.0098
   39.990    4.0240