File: data/MOCOF-1/PXRD/PXRD_KE-191_Cu-Ka1_capillary-1mm_5s-deg.xyd
    1.500   17.7567
    1.635   16.7246
    1.770   13.8705
    1.905   12.7751
    2.040   11.3744
    2.175   10.3212
    2.310    9.7736
    2.445    8.7098
    2.580    8.3834
    2.715    7.8462
    2.850    7.7199
    2.985    7.8673
    3.120    9.2680
    3.255   10.7741
    3.390   16.3033
    3.525   16.3665
    3.660   22.4013
    3.795   56.7457
    3.930   13.5229
    4.065    7.8568
    4.200    6.4139
    4.335    4.9394
    4.470    4.5498
    4.605    4.4760
    4.740    4.4023
    4.875    4.2022
    5.010    4.0864
    5.145    4.9394
    5.280    6.7193
    5.415   15.5240
    5.550    5.8347
    5.685    3.8547
    5.820    3.7072
    5.955    3.4229
    6.090    3.4966
    6.225    3.5492
    6.360    3.5703
    6.495    3.8441
    6.630    5.3081
    6.765    6.6667
    6.900    4.0548
    7.035    3.7388
    7.170    3.2333
    7.305    3.5703
    7.440    3.7283
    7.575    3.8020
    7.710    6.0769
    7.845    4.1706
    7.980    3.4860
    8.115    3.7493
    8.250    3.8441
    8.385    3.7704
    8.520    3.5914
    8.655    3.8652
    8.790    3.1806
    8.925    3.4755
    9.060    3.3597
    9.195    3.6019
    9.330    3.8441
    9.465    6.6772
    9.600    5.4344
    9.735    3.2227
    9.870    3.1280
   10.005    3.2859
   10.140    3.6335
   10.275    5.4344
   10.410    3.5492
   10.545    3.0964
   10.680    3.3913
   10.815    3.0753
   10.950    4.3918
   11.085    4.3918
   11.220    3.0226
   11.355    3.1490
   11.490    3.2438
   11.625    4.2443
   11.760    4.2233
   11.895    2.8436
   12.030    2.9910
   12.165    3.1174
   12.300    3.3597
   12.435    2.9173
   12.570    3.1490
   12.705    2.9384
   12.840    3.2333
   12.975    4.9289
   13.110    3.2649
   13.245    3.1174
   13.380    2.8015
   13.515    3.8652
   13.650    3.0226
   13.785    2.8436
   13.920    3.1912
   14.055    4.5603
   14.190    3.0016
   14.325    2.7067
   14.460    2.9068
   14.595    2.9489
   14.730    3.2122
   14.865    3.0964
   15.000    3.0753
   15.135    3.3807
   15.270    3.1385
   15.405    3.0332
   15.540    3.0648
   15.675    3.0226
   15.810    3.2649
   15.945    2.7488
   16.080    3.4018
   16.215    2.9068
   16.350    2.5698
   16.485    3.1174
   16.620    3.4650
   16.755    2.6751
   16.890    2.9489
   17.025    4.0864
   17.160    3.0016
   17.295    2.6435
   17.430    3.0332
   17.565    2.8963
   17.700    3.0016
   17.835    2.8752
   17.970    3.1912
   18.105    2.9173
   18.240    3.1701
   18.375    3.4123
   18.510    2.7383
   18.645    2.9805
   18.780    3.0332
   18.915    3.4123
   19.050    3.3597
   19.185    3.0648
   19.320    3.2859
   19.455    2.9279
   19.590    3.2754
   19.725    3.1280
   19.860    2.8225
   19.995    2.9595
   20.130    2.8647
   20.265    3.1490
   20.400    4.0548
   20.535    3.0753
   20.670    3.1490
   20.805    3.1806
   20.940    3.1912
   21.075    3.0332
   21.210    3.0226
   21.345    3.0542
   21.480    3.3175
   21.615    2.6751
   21.750    3.0016
   21.885    3.3913
   22.020    3.1596
   22.155    3.3070
   22.290    3.1385
   22.425    3.2859
   22.560    4.4128
   22.695    3.1069
   22.830    3.4755
   22.965    4.1390
   23.100    3.3597
   23.235    3.4966
   23.370    3.2965
   23.505    3.0016
   23.640    3.0016
   23.775    3.1912
   23.910    3.6440
   24.045    2.9384
   24.180    2.9805
   24.315    3.0226
   24.450    2.9279
   24.585    3.1385
   24.720    2.9700
   24.855    3.0121
   24.990    2.9279
   25.125    2.8541
   25.260    3.2754
   25.395    2.6856
   25.530    3.2122
   25.665    2.6962
   25.800    3.9073
   25.935    3.0437
   26.070    2.5908
   26.205    3.1280
   26.340    2.9173
   26.475    3.2965
   26.610    3.0332
   26.745    3.0121
   26.880    2.9489
   27.015    2.8331
   27.150    2.8647
   27.285    2.6540
   27.420    3.0648
   27.555    3.0648
   27.690    2.6751
   27.825    2.7488
   27.960    3.4229
   28.095    3.1701
   28.230    3.0753
   28.365    2.5171
   28.500    3.0753
   28.635    2.4539
   28.770    2.9489
   28.905    3.0437
   29.040    3.1701
   29.175    2.8331
   29.310    2.7067
   29.445    2.7383
   29.580    2.6330
   29.715    2.6962
   29.850    2.7172
   29.985    2.5592
   30.120    2.7699
   30.255    2.7593
   30.390    2.6119
   30.525    2.4855
   30.660    2.8857
   30.795    2.5382
   30.930    2.5908
   31.065    2.5698
   31.200    2.2959
   31.335    2.6435
   31.470    2.5066
   31.605    2.2959
   31.740    2.6330
   31.875    2.3486
   32.010    2.9068
   32.145    3.7493
   32.280    2.2117
   32.415    2.4434
   32.550    2.2643
   32.685    2.4118
   32.820    2.4223
   32.955    2.3275
   33.090    2.3275
   33.225    2.3697
   33.360    2.6646
   33.495    2.3275
   33.630    2.1696
   33.765    2.7488
   33.900    2.7699
   34.035    2.4223
   34.170    2.6330
   34.305    2.4750
   34.440    2.3486
   34.575    2.0432
   34.710    2.3697
   34.845    2.3065
   34.980    2.3697
   35.115    2.0853
   35.250    2.3065
   35.385    2.4118
   35.520    2.2222
   35.655    2.1485
   35.790    2.2959
   35.925    2.2643
   36.060    2.2538
   36.195    2.1064
   36.330    2.1801
   36.465    2.0011
   36.600    2.1696
   36.735    2.2012
   36.870    1.9273
   37.005    2.1169
   37.140    2.2328
   37.275    2.1801
   37.410    2.0537
   37.545    2.0011
   37.680    2.0326
   37.815    2.0326
   37.950    2.1064
   38.085    2.0537
   38.220    2.1590
   38.355    2.2117
   38.490    2.3486
   38.625    2.2433
   38.760    2.0432
   38.895    2.0958
   39.030    1.9905
   39.165    2.1696
   39.300    2.0958
   39.435    1.9800
   39.570    2.2328
   39.705    1.9905
   39.840    1.9484
   39.975    2.0958
   39.990    2.0642