File: data/MOCOF-1/PXRD/PXRD_KE-175_Cu-Ka1_capillary-1mm_5s-deg.xyd
    1.500   14.5445
    1.635   12.9963
    1.770   11.2902
    1.905   10.6793
    2.040   10.0158
    2.175   10.1106
    2.310   10.2896
    2.445   10.4160
    2.580   11.2270
    2.715   12.6066
    2.850   14.7551
    2.985   18.1043
    3.120   23.1806
    3.255   31.0585
    3.390   47.9516
    3.525   48.4360
    3.660   23.9179
    3.795   23.5387
    3.930   24.0126
    4.065   19.9473
    4.200   15.6503
    4.335   10.9321
    4.470    7.1617
    4.605    6.0348
    4.740    5.0026
    4.875    5.0237
    5.010    4.2654
    5.145    4.2233
    5.280    4.4760
    5.415    4.2549
    5.550    4.4234
    5.685    4.0758
    5.820    3.8125
    5.955    3.7809
    6.090    3.9705
    6.225    4.0126
    6.360    4.1074
    6.495    4.3181
    6.630    4.7499
    6.765    6.0664
    6.900    7.6461
    7.035    7.4882
    7.170    4.7499
    7.305    4.2549
    7.440    4.1917
    7.575    4.2549
    7.710    4.3707
    7.845    4.8025
    7.980    4.4550
    8.115    4.9605
    8.250    5.3291
    8.385    5.0448
    8.520    4.2127
    8.655    4.3813
    8.790    3.6546
    8.925    3.8441
    9.060    3.6335
    9.195    3.8652
    9.330    3.4650
    9.465    4.0548
    9.600    4.1917
    9.735    3.7072
    9.870    3.7072
   10.005    3.4650
   10.140    3.6335
   10.275    3.6124
   10.410    4.3602
   10.545    3.7599
   10.680    3.6335
   10.815    3.6651
   10.950    3.5703
   11.085    3.5176
   11.220    3.4123
   11.355    3.3702
   11.490    3.0858
   11.625    3.4650
   11.760    3.5914
   11.895    3.7177
   12.030    3.5176
   12.165    3.6335
   12.300    3.3807
   12.435    3.5492
   12.570    3.8020
   12.705    3.6756
   12.840    3.8125
   12.975    3.6651
   13.110    3.5808
   13.245    3.2754
   13.380    3.4439
   13.515    3.6546
   13.650    3.4123
   13.785    3.7283
   13.920    3.5387
   14.055    3.2965
   14.190    3.4334
   14.325    3.3281
   14.460    3.6335
   14.595    3.3175
   14.730    3.3807
   14.865    3.2333
   15.000    3.1912
   15.135    3.2227
   15.270    3.1385
   15.405    3.4544
   15.540    3.3281
   15.675    3.2965
   15.810    3.2543
   15.945    3.4439
   16.080    3.5492
   16.215    3.4018
   16.350    3.4439
   16.485    3.3070
   16.620    3.2859
   16.755    3.4123
   16.890    3.3386
   17.025    3.4966
   17.160    3.6019
   17.295    3.4860
   17.430    3.2965
   17.565    3.4018
   17.700    3.3070
   17.835    3.5703
   17.970    3.4123
   18.105    3.6440
   18.240    3.4544
   18.375    3.3913
   18.510    3.2438
   18.645    3.4123
   18.780    3.4966
   18.915    3.5703
   19.050    3.4544
   19.185    3.2859
   19.320    3.6651
   19.455    3.6967
   19.590    3.5808
   19.725    3.8863
   19.860    3.5914
   19.995    3.4966
   20.130    3.6967
   20.265    3.6019
   20.400    3.6019
   20.535    3.3386
   20.670    3.3807
   20.805    4.0021
   20.940    3.9600
   21.075    3.6862
   21.210    3.8336
   21.345    3.7809
   21.480    3.7704
   21.615    3.9179
   21.750    4.0126
   21.885    3.4755
   22.020    4.0442
   22.155    3.6862
   22.290    4.0442
   22.425    3.7283
   22.560    3.9179
   22.695    3.6967
   22.830    3.6230
   22.965    4.0548
   23.100    3.6756
   23.235    3.8336
   23.370    3.6756
   23.505    3.5492
   23.640    3.7915
   23.775    3.6335
   23.910    3.6862
   24.045    3.7915
   24.180    3.6546
   24.315    3.9389
   24.450    3.8757
   24.585    3.6124
   24.720    3.3702
   24.855    3.4439
   24.990    3.7809
   25.125    3.4018
   25.260    3.4018
   25.395    3.5176
   25.530    3.2754
   25.665    3.5282
   25.800    3.5176
   25.935    3.5492
   26.070    3.1596
   26.205    3.3281
   26.340    3.3702
   26.475    3.3281
   26.610    3.3913
   26.745    3.4334
   26.880    2.9595
   27.015    3.1912
   27.150    3.2543
   27.285    3.5071
   27.420    3.3386
   27.555    3.1596
   27.690    3.4755
   27.825    3.0332
   27.960    3.2333
   28.095    3.2649
   28.230    3.2649
   28.365    3.3702
   28.500    3.3281
   28.635    3.2438
   28.770    3.2438
   28.905    3.2649
   29.040    3.1701
   29.175    3.2543
   29.310    3.1174
   29.445    3.1174
   29.580    3.0964
   29.715    3.0858
   29.850    3.1596
   29.985    2.9279
   30.120    3.0121
   30.255    2.8857
   30.390    2.7278
   30.525    3.0121
   30.660    3.0016
   30.795    2.9805
   30.930    2.7909
   31.065    2.8120
   31.200    2.6540
   31.335    2.9595
   31.470    2.8436
   31.605    2.7909
   31.740    2.9595
   31.875    2.9805
   32.010    3.2122
   32.145    3.1806
   32.280    2.8225
   32.415    2.6751
   32.550    2.7278
   32.685    2.7593
   32.820    2.6435
   32.955    2.4961
   33.090    2.4645
   33.225    2.6014
   33.360    2.3275
   33.495    2.6014
   33.630    2.4329
   33.765    2.7172
   33.900    2.4539
   34.035    2.6330
   34.170    2.6540
   34.305    2.4329
   34.440    2.3065
   34.575    2.3275
   34.710    2.4539
   34.845    2.3381
   34.980    2.1801
   35.115    2.2222
   35.250    2.4118
   35.385    2.4013
   35.520    2.5382
   35.655    2.5487
   35.790    2.2643
   35.925    2.1485
   36.060    2.3591
   36.195    2.4329
   36.330    2.3275
   36.465    2.2012
   36.600    2.2222
   36.735    2.0221
   36.870    2.1064
   37.005    2.2433
   37.140    2.1485
   37.275    1.9905
   37.410    1.9800
   37.545    2.1380
   37.680    2.0011
   37.815    2.3802
   37.950    2.0748
   38.085    2.0748
   38.220    1.9905
   38.355    2.1064
   38.490    1.8641
   38.625    2.1906
   38.760    2.2959
   38.895    2.2749
   39.030    1.8852
   39.165    2.1274
   39.300    1.7694
   39.435    1.9063
   39.570    2.0853
   39.705    1.9273
   39.840    2.0748
   39.975    2.0221
   39.990    1.9273