File: data/MOCOF-1/PXRD/PXRD_KE-305-4B_Cu-Ka1_capillary-1mm_3s-deg.xyd
    1.500   15.3063
    1.665   13.9196
    1.830   11.9010
    1.995   11.1462
    2.160   10.2686
    2.325   10.3037
    2.490    9.9175
    2.655   10.6723
    2.820   11.4622
    2.985   13.2526
    3.150   16.3946
    3.315   19.8174
    3.480   27.7163
    3.645   43.2333
    3.810  112.6031
    3.975    9.2329
    4.140    5.8276
    4.305    5.8276
    4.470    6.0032
    4.635    5.7925
    4.800    6.7053
    4.965    8.9521
    5.130   10.9531
    5.295   17.5882
    5.460   48.2535
    5.625    5.6345
    5.790    5.4064
    5.955    4.8447
    6.120    5.3010
    6.285    5.1255
    6.450    6.6351
    6.615    9.7595
    6.780    8.0569
    6.945    4.5111
    7.110    4.4936
    7.275    4.8271
    7.440    5.5117
    7.605    6.1787
    7.770   12.1819
    7.935    4.3883
    8.100    4.5814
    8.265    4.2478
    8.430    4.4409
    8.595    5.1255
    8.760    5.0377
    8.925    4.7393
    9.090    5.2308
    9.255    6.3191
    9.420   10.6021
    9.585   11.6553
    9.750    4.3181
    9.915    4.4936
   10.080    4.8622
   10.245    8.5835
   10.410    4.6516
   10.575    4.6516
   10.740    4.6165
   10.905    5.4415
   11.070    6.1436
   11.235    4.5287
   11.400    4.2654
   11.565    5.4239
   11.730    8.0218
   11.895    3.9143
   12.060    4.0899
   12.225    4.2127
   12.390    4.6165
   12.555    4.0197
   12.720    4.3707
   12.885    6.0207
   13.050    4.3883
   13.215    3.4580
   13.380    4.1425
   13.545    5.7574
   13.710    4.1425
   13.875    3.8968
   14.040    6.3016
   14.205    3.7213
   14.370    4.0548
   14.535    3.9494
   14.700    3.7564
   14.865    3.5984
   15.030    3.9494
   15.195    4.4585
   15.360    3.4931
   15.525    3.4755
   15.690    3.8090
   15.855    3.5633
   16.020    4.1074
   16.185    4.0899
   16.350    3.8090
   16.515    3.8617
   16.680    3.9143
   16.845    4.2303
   17.010    5.3186
   17.175    4.2654
   17.340    3.8968
   17.505    4.5989
   17.670    3.5457
   17.835    3.8266
   18.000    4.5111
   18.165    3.9494
   18.330    4.0372
   18.495    4.0197
   18.660    4.3707
   18.825    4.3181
   18.990    3.5633
   19.155    3.9670
   19.320    3.8441
   19.485    4.2303
   19.650    4.3532
   19.815    3.7915
   19.980    4.1250
   20.145    4.1250
   20.310    5.0553
   20.475    3.9494
   20.640    3.6686
   20.805    4.1601
   20.970    3.8617
   21.135    4.0548
   21.300    3.9143
   21.465    3.9846
   21.630    3.8968
   21.795    3.8968
   21.960    3.8090
   22.125    4.0723
   22.290    3.8441
   22.455    4.8271
   22.620    5.1255
   22.785    4.3532
   22.950    5.5117
   23.115    4.1425
   23.280    4.2127
   23.445    3.7915
   23.610    4.3356
   23.775    3.5633
   23.940    4.3005
   24.105    3.6335
   24.270    3.5282
   24.435    3.6862
   24.600    3.8090
   24.765    3.9670
   24.930    4.0021
   25.095    3.5808
   25.260    3.9494
   25.425    3.7564
   25.590    4.0899
   25.755    4.2654
   25.920    4.1250
   26.085    3.6862
   26.250    3.4053
   26.415    4.4234
   26.580    3.7564
   26.745    3.9846
   26.910    3.8441
   27.075    3.7915
   27.240    3.1947
   27.405    3.6510
   27.570    4.1601
   27.735    3.5106
   27.900    3.7915
   28.065    3.4229
   28.230    3.8617
   28.395    4.2303
   28.560    3.7915
   28.725    3.3175
   28.890    3.4053
   29.055    3.5457
   29.220    3.9494
   29.385    3.5984
   29.550    3.1069
   29.715    3.4931
   29.880    3.7037
   30.045    3.6159
   30.210    3.6686
   30.375    3.1069
   30.540    3.4229
   30.705    3.3351
   30.870    3.4931
   31.035    3.4053
   31.200    3.3351
   31.365    3.1771
   31.530    3.5984
   31.695    3.5457
   31.860    3.3351
   32.025    3.3000
   32.190    3.2649
   32.355    3.5633
   32.520    3.0367
   32.685    3.1420
   32.850    3.1771
   33.015    3.1069
   33.180    3.3526
   33.345    3.1947
   33.510    3.2649
   33.675    3.0016
   33.840    2.7734
   34.005    3.1420
   34.170    3.4053
   34.335    3.2649
   34.500    3.1245
   34.665    2.8260
   34.830    3.4755
   34.995    3.0893
   35.160    3.0016
   35.325    2.9314
   35.490    2.8436
   35.655    2.9665
   35.820    2.9314
   35.985    2.8612
   36.150    3.0016
   36.315    2.6681
   36.480    2.8260
   36.645    2.8085
   36.810    2.6505
   36.975    2.7032
   37.140    2.5979
   37.305    2.9840
   37.470    3.0542
   37.635    2.9840
   37.800    2.7207
   37.965    3.1069
   38.130    2.8085
   38.295    2.9138
   38.460    2.8612
   38.625    2.8085
   38.790    2.6856
   38.955    2.8612
   39.120    2.7032
   39.285    2.6505
   39.450    2.5803
   39.615    2.6505
   39.780    2.9840
   39.945    2.8787
   40.110    2.7032
   40.275    2.7032
   40.440    3.3175
   40.605    3.1420
   40.770    2.8085
   40.935    3.0191
   41.100    2.4925
   41.265    3.0016
   41.430    3.1596
   41.595    2.6856
   41.760    2.8963
   41.925    2.5452
   42.090    2.4574
   42.255    2.5276
   42.420    2.9489
   42.585    2.6154
   42.750    2.3521
   42.915    2.6330
   43.080    2.6856
   43.245    2.9138
   43.410    2.5276
   43.575    2.5803
   43.740    2.5979
   43.905    2.9840
   44.070    2.7909
   44.235    2.4750
   44.400    2.7383
   44.565    2.7207
   44.730    2.6681
   44.895    2.8260
   45.060    2.7734
   45.225    2.8085
   45.390    2.7207
   45.555    2.3521
   45.720    2.5452
   45.885    2.7032
   46.050    2.5452
   46.215    2.7734
   46.380    2.8612
   46.545    3.0718
   46.710    2.7734
   46.875    2.7383
   47.040    2.6681
   47.205    2.4574
   47.370    2.5276
   47.535    2.7383
   47.700    2.4223
   47.865    2.2643
   48.030    2.3521
   48.195    2.4399
   48.360    2.4750
   48.525    2.4925
   48.690    2.4925
   48.855    2.4574
   49.020    2.5276
   49.185    2.5803
   49.350    2.8085
   49.515    2.5979
   49.680    2.6330
   49.845    2.6505
   49.980    2.4750