File: data/MOCOF-1/PXRD/PXRD_KE-119_Cu-Ka1_capillary-1mm_5s-deg.xyd
    1.500   21.6219
    1.635   19.1048
    1.770   17.8936
    1.905   16.2612
    2.040   15.3344
    2.175   14.5024
    2.310   14.6498
    2.445   13.0490
    2.580   13.1227
    2.715   13.0700
    2.850   13.3649
    2.985   13.8178
    3.120   14.7551
    3.255   15.8294
    3.390   18.9047
    3.525   22.8015
    3.660   30.9321
    3.795   50.2475
    3.930   41.1901
    4.065   11.3007
    4.200    9.2680
    4.335    9.1311
    4.470    9.1627
    4.605    8.6572
    4.740    9.1311
    4.875    9.6788
    5.010    9.8262
    5.145   10.6266
    5.280   13.9126
    5.415   20.4739
    5.550   18.8415
    5.685    9.1311
    5.820    7.8673
    5.955    7.8778
    6.090    7.6672
    6.225    7.6988
    6.360    8.1938
    6.495    8.5203
    6.630   10.2475
    6.765   12.5540
    6.900    7.6672
    7.035    8.0990
    7.170    8.0358
    7.305    8.1517
    7.440    7.9726
    7.575    8.8046
    7.710   10.4160
    7.845   10.4581
    7.980    8.2359
    8.115    7.8462
    8.250    8.3307
    8.385    8.1938
    8.520    8.3412
    8.655    8.2149
    8.790    8.2570
    8.925    8.2886
    9.060    8.2043
    9.195    8.7836
    9.330    9.6156
    9.465   12.2591
    9.600   13.1964
    9.735    8.7625
    9.870    8.2043
   10.005    8.3518
   10.140    8.8046
   10.275   10.3423
   10.410    9.3312
   10.545    8.6467
   10.680    7.8252
   10.815    8.3412
   10.950    8.9942
   11.085    9.5208
   11.220    7.7199
   11.355    8.1727
   11.490    7.8673
   11.625    9.0153
   11.760    9.1627
   11.895    7.5092
   12.030    7.1090
   12.165    7.6461
   12.300    7.3302
   12.435    7.0248
   12.570    7.2986
   12.705    7.0248
   12.840    7.4776
   12.975    8.5308
   13.110    7.2670
   13.245    7.2565
   13.380    7.2143
   13.515    7.1827
   13.650    7.0774
   13.785    7.2565
   13.920    7.2038
   14.055    7.8357
   14.190    7.5829
   14.325    6.8036
   14.460    7.2670
   14.595    6.9089
   14.730    7.0458
   14.865    6.9826
   15.000    6.6561
   15.135    7.5092
   15.270    6.8246
   15.405    7.1722
   15.540    6.4244
   15.675    7.2143
   15.810    7.2143
   15.945    7.0142
   16.080    6.9089
   16.215    6.9510
   16.350    6.9510
   16.485    7.4039
   16.620    7.0142
   16.755    6.9194
   16.890    7.4144
   17.025    8.2991
   17.160    7.4671
   17.295    6.9932
   17.430    7.1301
   17.565    7.2565
   17.700    6.9721
   17.835    6.8352
   17.970    7.3302
   18.105    7.1301
   18.240    7.1511
   18.375    6.8984
   18.510    7.0142
   18.645    6.9300
   18.780    6.9932
   18.915    7.4566
   19.050    7.2775
   19.185    6.8036
   19.320    6.8141
   19.455    6.9405
   19.590    7.1722
   19.725    6.9300
   19.860    7.3828
   19.995    7.2986
   20.130    7.0458
   20.265    7.4144
   20.400    8.0147
   20.535    7.0458
   20.670    6.8246
   20.805    6.8457
   20.940    6.9616
   21.075    7.1406
   21.210    6.9089
   21.345    7.2459
   21.480    7.2459
   21.615    7.3618
   21.750    7.2459
   21.885    7.3828
   22.020    7.3407
   22.155    8.0779
   22.290    7.2670
   22.425    6.9510
   22.560    8.0990
   22.695    7.8884
   22.830    7.6883
   22.965    7.6567
   23.100    7.5092
   23.235    7.4355
   23.370    7.7620
   23.505    7.2249
   23.640    6.8668
   23.775    7.1722
   23.910    7.7936
   24.045    7.6251
   24.180    7.1722
   24.315    6.9826
   24.450    6.8773
   24.585    7.1090
   24.720    7.0037
   24.855    6.4666
   24.990    7.0353
   25.125    7.1195
   25.260    6.9405
   25.395    6.9405
   25.530    6.8878
   25.665    6.8984
   25.800    7.3828
   25.935    7.1617
   26.070    6.7088
   26.205    6.5929
   26.340    6.5824
   26.475    6.8036
   26.610    7.0879
   26.745    6.7193
   26.880    6.6561
   27.015    6.9405
   27.150    7.0774
   27.285    6.7825
   27.420    6.1295
   27.555    6.5508
   27.690    6.8773
   27.825    6.8036
   27.960    6.9616
   28.095    6.8878
   28.230    6.7193
   28.365    6.9300
   28.500    6.9721
   28.635    6.4666
   28.770    6.1611
   28.905    6.6351
   29.040    6.2454
   29.175    6.2875
   29.310    6.9194
   29.445    6.3823
   29.580    6.5403
   29.715    6.6667
   29.850    6.2243
   29.985    6.2349
   30.120    5.8873
   30.255    6.1295
   30.390    6.2981
   30.525    6.0242
   30.660    6.5087
   30.795    6.0242
   30.930    6.1506
   31.065    6.0453
   31.200    5.9926
   31.335    5.9400
   31.470    5.8347
   31.605    6.0979
   31.740    5.9926
   31.875    6.3296
   32.010    6.4982
   32.145    6.8246
   32.280    5.8241
   32.415    5.7504
   32.550    6.1611
   32.685    5.8978
   32.820    5.6977
   32.955    6.0242
   33.090    5.8557
   33.225    5.8768
   33.360    5.7504
   33.495    5.4555
   33.630    5.6240
   33.765    5.9821
   33.900    5.9821
   34.035    5.8241
   34.170    5.6556
   34.305    5.5924
   34.440    5.1395
   34.575    5.5292
   34.710    5.5187
   34.845    5.6451
   34.980    5.5292
   35.115    5.5082
   35.250    5.7609
   35.385    5.0869
   35.520    5.3186
   35.655    5.5187
   35.790    5.7715
   35.925    5.7399
   36.060    5.1395
   36.195    5.6029
   36.330    5.1711
   36.465    5.7188
   36.600    5.3397
   36.735    5.2870
   36.870    5.4976
   37.005    5.2554
   37.140    5.5714
   37.275    5.4239
   37.410    5.5398
   37.545    5.3818
   37.680    5.2870
   37.815    5.1817
   37.950    5.1395
   38.085    5.0237
   38.220    5.1922
   38.355    5.2449
   38.490    5.0764
   38.625    5.2449
   38.760    5.0553
   38.895    5.2659
   39.030    5.0132
   39.165    5.3818
   39.300    5.3081
   39.435    5.1606
   39.570    5.1606
   39.705    5.1501
   39.840    5.3186
   39.975    5.4766
   39.990    5.0869