File: data/MOCOF-1/PXRD/PXRD_KE-060-2_Cu-Ka1_capillary-1mm_35s-deg.xyd
    1.500    4.4038
    1.635    4.3120
    1.770    4.1345
    1.905    4.0307
    2.040    4.1270
    2.175    3.8983
    2.310    3.7524
    2.445    3.8486
    2.580    3.7072
    2.715    3.6937
    2.850    3.7719
    2.985    3.8095
    3.120    3.6531
    3.255    3.6410
    3.390    3.7478
    3.525    3.7283
    3.660    3.7930
    3.795    4.0217
    3.930    3.7539
    4.065    3.5387
    4.200    3.5899
    4.335    3.5447
    4.470    3.5492
    4.605    3.3822
    4.740    3.5327
    4.875    3.5222
    5.010    3.4891
    5.145    3.4800
    5.280    3.4244
    5.415    3.5778
    5.550    3.5568
    5.685    3.6019
    5.820    3.6049
    5.955    3.5447
    6.090    3.5131
    6.225    3.5869
    6.360    3.5673
    6.495    3.5748
    6.630    3.7689
    6.765    3.6801
    6.900    3.6937
    7.035    3.6064
    7.170    3.6500
    7.305    3.6139
    7.440    3.6922
    7.575    3.7313
    7.710    3.8411
    7.845    3.8186
    7.980    3.7734
    8.115    3.7779
    8.250    3.8637
    8.385    3.8020
    8.520    3.8351
    8.655    3.9209
    8.790    4.0172
    8.925    3.8908
    9.060    4.0156
    9.195    4.2067
    9.330    4.1240
    9.465    4.3120
    9.600    4.1315
    9.735    4.1827
    9.870    4.2428
   10.005    4.3707
   10.140    4.3632
   10.275    4.6115
   10.410    4.3271
   10.545    4.5121
   10.680    4.4339
   10.815    4.6039
   10.950    4.8040
   11.085    4.7153
   11.220    4.7123
   11.355    4.7318
   11.490    4.7017
   11.625    5.0177
   11.760    4.9139
   11.895    4.9304
   12.030    5.2148
   12.165    5.0794
   12.300    5.2088
   12.435    5.3517
   12.570    5.3246
   12.705    5.5036
   12.840    5.5202
   12.975    5.6105
   13.110    5.8061
   13.245    5.7700
   13.380    5.7835
   13.515    6.2424
   13.650    6.3312
   13.785    6.3868
   13.920    6.4831
   14.055    6.5960
   14.190    6.6125
   14.325    7.0052
   14.460    7.2580
   14.595    7.0804
   14.730    7.4535
   14.865    7.4942
   15.000    7.7499
   15.135    7.8583
   15.270    8.1065
   15.405    8.3277
   15.540    8.5082
   15.675    8.7715
   15.810    8.9491
   15.945    9.5644
   16.080    9.6502
   16.215    9.7736
   16.350   10.2264
   16.485   10.3438
   16.620   10.9486
   16.755   10.9050
   16.890   11.4857
   17.025   11.8107
   17.160   11.8604
   17.295   12.2862
   17.430   12.5916
   17.565   12.8474
   17.700   13.1994
   17.835   13.3815
   17.970   13.6342
   18.105   13.9953
   18.240   14.1623
   18.375   14.4422
   18.510   14.4783
   18.645   14.7581
   18.780   15.1012
   18.915   15.1659
   19.050   15.1599
   19.185   15.3765
   19.320   15.4457
   19.455   15.3389
   19.590   15.3509
   19.725   15.3359
   19.860   15.3585
   19.995   15.1253
   20.130   15.0335
   20.265   15.0094
   20.400   14.8243
   20.535   14.6453
   20.670   14.5731
   20.805   14.3384
   20.940   14.1533
   21.075   13.9352
   21.210   13.7802
   21.345   13.6673
   21.480   13.6327
   21.615   13.4221
   21.750   13.2115
   21.885   13.0655
   22.020   12.8820
   22.155   12.7405
   22.290   12.4908
   22.425   12.3900
   22.560   12.2230
   22.695   11.8875
   22.830   11.9913
   22.965   11.6934
   23.100   11.7957
   23.235   11.5926
   23.370   11.2089
   23.505   11.3353
   23.640   10.9652
   23.775   10.8659
   23.910   10.8102
   24.045   10.6357
   24.180   10.5996
   24.315   10.4416
   24.450   10.2505
   24.585   10.2791
   24.720   10.1843
   24.855    9.9887
   24.990    9.8322
   25.125    9.7405
   25.260    9.4742
   25.395    9.7134
   25.530    9.3944
   25.665    9.3117
   25.800    9.2515
   25.935    9.3553
   26.070    9.0243
   26.205    9.0649
   26.340    8.7760
   26.475    8.8016
   26.610    8.6948
   26.745    8.6391
   26.880    8.6467
   27.015    8.4240
   27.150    8.3126
   27.285    8.2299
   27.420    8.2660
   27.555    8.2540
   27.690    8.0313
   27.825    8.0057
   27.960    7.8598
   28.095    7.9425
   28.230    7.9019
   28.365    7.8146
   28.500    7.8131
   28.635    7.5709
   28.770    7.5784
   28.905    7.4701
   29.040    7.5137
   29.175    7.3603
   29.310    7.1993
   29.445    7.1195
   29.580    7.1857
   29.715    6.9390
   29.850    6.8893
   29.985    6.8577
   30.120    6.8397
   30.255    6.6832
   30.390    6.7419
   30.525    6.6697
   30.660    6.6922
   30.795    6.4289
   30.930    6.3041
   31.065    6.4681
   31.200    6.2559
   31.335    6.3342
   31.470    6.1807
   31.605    5.9836
   31.740    6.0513
   31.875    5.9370
   32.010    5.8046
   32.145    5.6661
   32.280    5.7730
   32.415    5.5653
   32.550    5.3773
   32.685    5.4465
   32.820    5.3096
   32.955    5.2238
   33.090    5.2840
   33.225    5.0523
   33.360    5.1486
   33.495    5.1095
   33.630    5.1892
   33.765    4.9425
   33.900    4.9018
   34.035    4.8326
   34.170    4.7017
   34.305    4.8522
   34.440    4.6355
   34.575    4.5784
   34.710    4.6340
   34.845    4.5558
   34.980    4.4580
   35.115    4.4204
   35.250    4.2489
   35.385    4.2534
   35.520    4.2323
   35.655    4.3316
   35.790    4.2504
   35.925    4.0788
   36.060    4.1706
   36.195    4.1285
   36.330    4.1646
   36.465    4.0367
   36.600    4.0006
   36.735    3.9630
   36.870    3.9494
   37.005    4.0608
   37.140    3.9510
   37.275    3.8908
   37.410    3.8787
   37.545    3.7659
   37.680    3.8246
   37.815    3.7358
   37.950    3.7749
   38.085    3.8080
   38.220    3.6862
   38.355    3.6275
   38.490    3.6862
   38.625    3.6651
   38.760    3.6726
   38.895    3.6606
   39.030    3.7177
   39.165    3.4725
   39.300    3.6440
   39.435    3.5944
   39.570    3.6154
   39.705    3.4815
   39.840    3.6139
   39.975    3.3973
   39.990    3.4620