File: data/MOCOF-1/PXRD/PXRD_KE-322B-2_Cu-Ka1_film-3mm_3s-deg.xyd
    1.500   16.3419
    1.665   14.9903
    1.830   13.0244
    1.995   12.4276
    2.160   10.5670
    2.325   10.3037
    2.490    9.7595
    2.655    9.8122
    2.820    8.9170
    2.985    9.1101
    3.150    9.5664
    3.315   10.4968
    3.480   13.7090
    3.645   18.2552
    3.810   32.8418
    3.975   14.0600
    4.140    8.0569
    4.305    7.9340
    4.470    7.7409
    4.635    7.9340
    4.800    7.9691
    4.965    8.6186
    5.130    9.1452
    5.295    9.7420
    5.460   12.8664
    5.625    9.0223
    5.790    7.9340
    5.955    7.4952
    6.120    6.9861
    6.285    6.6877
    6.450    6.6000
    6.615    6.8282
    6.780    7.3547
    6.945    6.6000
    7.110    6.5122
    7.275    6.0909
    7.440    5.9154
    7.605    5.7048
    7.770    6.6702
    7.935    5.5292
    8.100    5.6345
    8.265    6.0909
    8.430    5.4590
    8.595    6.1260
    8.760    6.1436
    8.925    5.7574
    9.090    5.2133
    9.255    5.8101
    9.420    5.6872
    9.585    7.5829
    9.750    5.7399
    9.915    5.1606
   10.080    5.8101
   10.245    6.5122
   10.410    5.9505
   10.575    5.4590
   10.740    5.8803
   10.905    5.4064
   11.070    6.3542
   11.235    5.3537
   11.400    5.4941
   11.565    5.5117
   11.730    6.6702
   11.895    5.6521
   12.060    5.4415
   12.225    5.2308
   12.390    5.9329
   12.555    5.1957
   12.720    5.1606
   12.885    4.9324
   13.050    5.6170
   13.215    5.0377
   13.380    4.9324
   13.545    5.6170
   13.710    5.3361
   13.875    4.8622
   14.040    5.0553
   14.205    5.5643
   14.370    5.5643
   14.535    5.0377
   14.700    5.2484
   14.865    4.9149
   15.030    5.1080
   15.195    5.2133
   15.360    5.3010
   15.525    5.2484
   15.690    4.9675
   15.855    5.1431
   16.020    4.6867
   16.185    5.0202
   16.350    5.3186
   16.515    4.9324
   16.680    4.9324
   16.845    5.2308
   17.010    5.0904
   17.175    5.0026
   17.340    4.7744
   17.505    4.8973
   17.670    5.1080
   17.835    5.4064
   18.000    4.7393
   18.165    4.7042
   18.330    5.0202
   18.495    4.8095
   18.660    4.8447
   18.825    5.3361
   18.990    4.8622
   19.155    4.9500
   19.320    4.9851
   19.485    5.3361
   19.650    5.0728
   19.815    4.6516
   19.980    5.1782
   20.145    4.9500
   20.310    4.7042
   20.475    5.1957
   20.640    4.9851
   20.805    4.9324
   20.970    4.8271
   21.135    4.9500
   21.300    4.5638
   21.465    4.8095
   21.630    4.8973
   21.795    4.3356
   21.960    5.2659
   22.125    4.7744
   22.290    4.9851
   22.455    4.5638
   22.620    5.4415
   22.785    5.0026
   22.950    4.7920
   23.115    4.8973
   23.280    4.9324
   23.445    4.5814
   23.610    4.5814
   23.775    4.2127
   23.940    4.7569
   24.105    4.4585
   24.270    3.9319
   24.435    4.2303
   24.600    4.4936
   24.765    4.1776
   24.930    4.2303
   25.095    4.0372
   25.260    4.0021
   25.425    4.0021
   25.590    4.4234
   25.755    4.1074
   25.920    4.5814
   26.085    4.1250
   26.250    4.0548
   26.415    4.1601
   26.580    4.0723
   26.745    3.7388
   26.910    4.0723
   27.075    4.0372
   27.240    3.7213
   27.405    3.4404
   27.570    4.1601
   27.735    4.2478
   27.900    3.6510
   28.065    3.6686
   28.230    3.9494
   28.395    3.5457
   28.560    4.0548
   28.725    4.3181
   28.890    3.3702
   29.055    3.6335
   29.220    3.6335
   29.385    3.8090
   29.550    4.2303
   29.715    3.4755
   29.880    3.4755
   30.045    3.4755
   30.210    3.6862
   30.375    3.2649
   30.540    3.3351
   30.705    3.3526
   30.870    3.5808
   31.035    3.2649
   31.200    3.4229
   31.365    3.4229
   31.530    2.9489
   31.695    3.3526
   31.860    3.1947
   32.025    2.7909
   32.190    3.2298
   32.355    3.2473
   32.520    2.8436
   32.685    2.9314
   32.850    3.1771
   33.015    3.3000
   33.180    3.0542
   33.345    2.9665
   33.510    2.9489
   33.675    3.0718
   33.840    3.0191
   34.005    2.9840
   34.170    3.1596
   34.335    3.0718
   34.500    3.0367
   34.665    3.1771
   34.830    3.1245
   34.995    2.9138
   35.160    3.4229
   35.325    3.0718
   35.490    3.4580
   35.655    3.2473
   35.820    3.0191
   35.985    2.7909
   36.150    2.9840
   36.315    2.9314
   36.480    2.7909
   36.645    3.2824
   36.810    3.2298
   36.975    3.0367
   37.140    3.1771
   37.305    3.1771
   37.470    3.2122
   37.635    3.0191
   37.800    2.9138
   37.965    3.1069
   38.130    3.0191
   38.295    2.8963
   38.460    2.7558
   38.625    2.8787
   38.790    2.9665
   38.955    3.1069
   39.120    2.8085
   39.285    3.0191
   39.450    2.9840
   39.615    2.5276
   39.780    2.7909
   39.945    2.8787
   40.110    2.8260
   40.275    2.7909
   40.440    2.9665
   40.605    3.3877
   40.770    3.3877
   40.935    2.8436
   41.100    3.2649
   41.265    2.9840
   41.430    2.7734
   41.595    2.8085
   41.760    2.8085
   41.925    2.5628
   42.090    3.1420
   42.255    3.0191
   42.420    2.6330
   42.585    2.8260
   42.750    2.7558
   42.915    2.8260
   43.080    2.8436
   43.245    2.9138
   43.410    2.9314
   43.575    2.7558
   43.740    2.7383
   43.905    2.5979
   44.070    3.0718
   44.235    2.8963
   44.400    2.7909
   44.565    2.9138
   44.730    2.8085
   44.895    2.8787
   45.060    2.8260
   45.225    3.0718
   45.390    2.9489
   45.555    2.8260
   45.720    2.8787
   45.885    2.8612
   46.050    2.8436
   46.215    2.9314
   46.380    2.4750
   46.545    2.7207
   46.710    2.5452
   46.875    2.4399
   47.040    2.9840
   47.205    2.7207
   47.370    3.0367
   47.535    2.9489
   47.700    2.9138
   47.865    2.6856
   48.030    2.7207
   48.195    2.6505
   48.360    2.7558
   48.525    2.7383
   48.690    2.7207
   48.855    2.4399
   49.020    2.7558
   49.185    2.6154
   49.350    2.7909
   49.515    2.7032
   49.680    2.6154
   49.845    2.5452
   49.980    2.8260