File: data/MOCOF-1/PXRD/PXRD_KE-242-3_Cu-Ka1_capillary-1mm_720s-deg.xyd
    1.500   50.7071
    1.635   41.7414
    1.770   33.8817
    1.905   28.1556
    2.040   23.9016
    2.175   20.6370
    2.310   18.2013
    2.445   16.3443
    2.580   14.8373
    2.715   13.8134
    2.850   13.1362
    2.985   13.1583
    3.120   14.1338
    3.255   16.8856
    3.390   22.6123
    3.525   34.1959
    3.660   59.4751
    3.795  144.0415
    3.930   41.3530
    4.065   11.0239
    4.200    9.1306
    4.335    8.2871
    4.470    7.8775
    4.605    7.5753
    4.740    7.4269
    4.875    7.4343
    5.010    7.8945
    5.145    9.2680
    5.280   13.0286
    5.415   27.3207
    5.550   13.8923
    5.685    7.1071
    5.820    6.7545
    5.955    6.5921
    6.090    6.5217
    6.225    6.4274
    6.360    6.5039
    6.495    6.6678
    6.630    7.4941
    6.765    8.3828
    6.900    6.5154
    7.035    6.4477
    7.170    6.4330
    7.305    6.4643
    7.440    6.7164
    7.575    7.7194
    7.710   12.7511
    7.845    9.6873
    7.980    6.5755
    8.115    6.4978
    8.250    6.4446
    8.385    6.4872
    8.520    6.7057
    8.655    8.0863
    8.790    6.8176
    8.925    6.5181
    9.060    6.5350
    9.195    6.6259
    9.330    7.3768
    9.465   11.7843
    9.600   12.1149
    9.735    6.7710
    9.870    6.6410
   10.005    6.6273
   10.140    6.9820
   10.275   10.0347
   10.410    7.0060
   10.545    6.4761
   10.680    6.3159
   10.815    6.5308
   10.950    8.1757
   11.085    8.9440
   11.220    6.2175
   11.355    6.0790
   11.490    6.2243
   11.625    7.9551
   11.760    9.0053
   11.895    5.9316
   12.030    5.8541
   12.165    5.8988
   12.300    6.4647
   12.435    5.9425
   12.570    5.7145
   12.705    5.7162
   12.840    6.3134
   12.975    8.7271
   13.110    5.7116
   13.245    5.6294
   13.380    5.7399
   13.515    7.0258
   13.650    5.7346
   13.785    5.6196
   13.920    5.7671
   14.055    7.6423
   14.190    6.0593
   14.325    5.5985
   14.460    5.5509
   14.595    5.5406
   14.730    5.5577
   14.865    5.5684
   15.000    5.6977
   15.135    6.7470
   15.270    5.6697
   15.405    5.5793
   15.540    5.5609
   15.675    5.5741
   15.810    5.5713
   15.945    5.6054
   16.080    6.0719
   16.215    5.9743
   16.350    5.6127
   16.485    5.7884
   16.620    6.8773
   16.755    5.7377
   16.890    5.7187
   17.025    7.1182
   17.160    6.3552
   17.295    5.6687
   17.430    5.7900
   17.565    6.0349
   17.700    5.6966
   17.835    5.7282
   17.970    6.2418
   18.105    5.7161
   18.240    5.7319
   18.375    6.3215
   18.510    5.7658
   18.645    5.6914
   18.780    6.0616
   18.915    5.7843
   19.050    5.6609
   19.185    5.7840
   19.320    5.7169
   19.455    5.7609
   19.590    6.6604
   19.725    5.9711
   19.860    5.7656
   19.995    5.8804
   20.130    5.7833
   20.265    5.9888
   20.400    7.7950
   20.535    5.9669
   20.670    5.7892
   20.805    5.8390
   20.940    5.8257
   21.075    5.7944
   21.210    5.7831
   21.345    5.8165
   21.480    5.7878
   21.615    5.7961
   21.750    5.9458
   21.885    6.7178
   22.020    5.9561
   22.155    6.0307
   22.290    6.1780
   22.425    6.0228
   22.560    7.5861
   22.695    6.4467
   22.830    6.5341
   22.965    8.2345
   23.100    6.0391
   23.235    6.3929
   23.370    6.0683
   23.505    5.8873
   23.640    5.9972
   23.775    5.7938
   23.910    6.2902
   24.045    5.9192
   24.180    5.6912
   24.315    5.7594
   24.450    5.6595
   24.585    5.8347
   24.720    5.6719
   24.855    5.7108
   24.990    5.6550
   25.125    5.6364
   25.260    5.7979
   25.395    5.6220
   25.530    5.8657
   25.665    5.6487
   25.800    6.4827
   25.935    6.1724
   26.070    5.5735
   26.205    5.6134
   26.340    5.5823
   26.475    5.9215
   26.610    5.5035
   26.745    5.3865
   26.880    5.4549
   27.015    5.9882
   27.150    5.6468
   27.285    5.3727
   27.420    5.3542
   27.555    5.4791
   27.690    5.5676
   27.825    5.3835
   27.960    5.5122
   28.095    5.4731
   28.230    5.8666
   28.365    5.4103
   28.500    5.7076
   28.635    5.2901
   28.770    5.2169
   28.905    5.1915
   29.040    5.3583
   29.175    5.2348
   29.310    5.5660
   29.445    5.2340
   29.580    5.1071
   29.715    5.1015
   29.850    5.2917
   29.985    5.1184
   30.120    5.1382
   30.255    5.0965
   30.390    5.1186
   30.525    5.0570
   30.660    5.1962
   30.795    5.0123
   30.930    4.9879
   31.065    4.9048
   31.200    4.9242
   31.335    4.9705
   31.470    5.0826
   31.605    4.9425
   31.740    5.0788
   31.875    4.9936
   32.010    4.9505
   32.145    4.8922
   32.280    4.8553
   32.415    4.8637
   32.550    4.8064
   32.685    4.7937
   32.820    4.8172
   32.955    4.9682
   33.090    4.7882
   33.225    4.7321
   33.360    4.7401
   33.495    4.7054
   33.630    4.7637
   33.765    4.7711
   33.900    4.9469
   34.035    4.8005
   34.170    4.7599
   34.305    4.7085
   34.440    4.6737
   34.575    4.6598
   34.710    4.6711
   34.845    4.7722
   34.980    4.6870
   35.115    4.5656
   35.250    4.5937
   35.385    4.6151
   35.520    4.5812
   35.655    4.6266
   35.790    4.6482
   35.925    4.6542
   36.060    4.6461
   36.195    4.6446
   36.330    4.5868
   36.465    4.5756
   36.600    4.6034
   36.735    4.6301
   36.870    4.5128
   37.005    4.5827
   37.140    4.7270
   37.275    4.6003
   37.410    4.5261
   37.545    4.5351
   37.680    4.5406
   37.815    4.5569
   37.950    4.5071
   38.085    4.5345
   38.220    4.4896
   38.355    4.4944
   38.490    4.5403
   38.625    4.4636
   38.760    4.4510
   38.895    4.4609
   39.030    4.4529
   39.165    4.4690
   39.300    4.5490
   39.435    4.4831
   39.570    4.4769
   39.705    4.4992
   39.840    4.4597
   39.975    4.4800
   39.990    4.4440