File: data/MOCOF-1/PXRD/PXRD_KE-013_Cu-Ka1_capillary-1mm_5s-deg.xyd
    1.500   20.3054
    1.635   17.8936
    1.770   16.2296
    1.905   14.8499
    2.040   13.7019
    2.175   13.1227
    2.310   12.0379
    2.445   11.7009
    2.580   12.2275
    2.715   12.0063
    2.850   11.6061
    2.985   11.1111
    3.120   10.9742
    3.255   10.7004
    3.390   10.6582
    3.525   10.4687
    3.660   10.9110
    3.795   10.6793
    3.930   10.5845
    4.065   10.0579
    4.200    9.9315
    4.335    9.9631
    4.470   10.1948
    4.605   10.0053
    4.740   10.6161
    4.875   10.0895
    5.010   10.4160
    5.145   10.5529
    5.280   10.8478
    5.415   10.8057
    5.550   10.1948
    5.685   10.6266
    5.820   10.5740
    5.955   10.1106
    6.090   10.6056
    6.225   10.9426
    6.360   10.3107
    6.495   10.5319
    6.630   10.3318
    6.765   10.5213
    6.900    9.8894
    7.035   10.7425
    7.170   11.1322
    7.305   12.1854
    7.440   12.5540
    7.575   12.7225
    7.710   14.0390
    7.845   15.5134
    7.980   13.9863
    8.115   11.1532
    8.250   10.3318
    8.385   10.7952
    8.520   10.5213
    8.655   10.7741
    8.790   10.2159
    8.925    9.7314
    9.060   10.9531
    9.195   11.0163
    9.330   11.5745
    9.465   13.5229
    9.600   17.2091
    9.735   19.3892
    9.870   18.8310
   10.005   13.6809
   10.140   13.4913
   10.275   14.1127
   10.410   12.6277
   10.545   12.3328
   10.680   12.8805
   10.815   13.0911
   10.950   12.7962
   11.085   12.8067
   11.220   12.7436
   11.355   12.0484
   11.490   11.7641
   11.625   11.8694
   11.760   11.3112
   11.895   12.2064
   12.030   12.3644
   12.165   11.8905
   12.300   11.2164
   12.435   11.2902
   12.570   11.3744
   12.705   11.6482
   12.840   11.6482
   12.975   11.3323
   13.110   11.5008
   13.245   10.9742
   13.380   10.6056
   13.515   11.2586
   13.650   11.4587
   13.785   11.0795
   13.920   11.1532
   14.055   10.5319
   14.190   10.7636
   14.325   11.4060
   14.460   10.7846
   14.595   10.5529
   14.730   10.7214
   14.865   10.9110
   15.000   10.2791
   15.135   10.5424
   15.270   10.9953
   15.405   10.2791
   15.540   10.6056
   15.675   11.1532
   15.810   11.2164
   15.945   11.1848
   16.080   11.2164
   16.215   10.3739
   16.350   10.8899
   16.485   10.5951
   16.620   10.4055
   16.755   10.3633
   16.890   10.4792
   17.025   10.5108
   17.160   10.4687
   17.295   11.2164
   17.430   10.8057
   17.565   10.8478
   17.700   10.5845
   17.835   10.8373
   17.970   10.6056
   18.105   10.6793
   18.240   10.3949
   18.375   10.7425
   18.510   11.0900
   18.645   10.2054
   18.780   11.0269
   18.915   10.4265
   19.050   10.6898
   19.185   10.4371
   19.320   11.0585
   19.455   11.3323
   19.590   10.6582
   19.725   10.3107
   19.860   10.4476
   19.995   10.6582
   20.130   10.5529
   20.265   10.7425
   20.400   10.4897
   20.535   11.5640
   20.670   10.9426
   20.805   10.7109
   20.940   10.5003
   21.075   10.7846
   21.210   10.4160
   21.345   10.8899
   21.480   10.5213
   21.615   11.1532
   21.750   11.5324
   21.885   11.0374
   22.020   11.3744
   22.155   11.1427
   22.290   11.0690
   22.425   10.5108
   22.560   11.4797
   22.695   11.5324
   22.830   10.9215
   22.965   11.1427
   23.100   11.6272
   23.235   11.4797
   23.370   11.1638
   23.505   10.8057
   23.640   10.9215
   23.775   10.6898
   23.910   11.2270
   24.045   11.0585
   24.180   11.0479
   24.315   11.2375
   24.450   11.0058
   24.585   11.1111
   24.720   10.9321
   24.855   11.7536
   24.990   10.7636
   25.125   10.9531
   25.260   11.0269
   25.395   10.9110
   25.530   11.7220
   25.665   11.4271
   25.800   10.8689
   25.935   11.2902
   26.070   11.3955
   26.205   12.1538
   26.340   11.2586
   26.475   11.1954
   26.610   11.3849
   26.745   11.9115
   26.880   11.7746
   27.015   11.9221
   27.150   11.9326
   27.285   11.4587
   27.420   11.3955
   27.555   11.5534
   27.690   11.6904
   27.825   11.2059
   27.960   11.1954
   28.095   10.7109
   28.230   10.8478
   28.365   10.3844
   28.500   10.3002
   28.635   10.7214
   28.770   10.4371
   28.905   11.2586
   29.040   10.5213
   29.175   10.1632
   29.310   10.5003
   29.445   10.5319
   29.580   10.5635
   29.715   10.2896
   29.850   10.2791
   29.985   10.1316
   30.120   10.6372
   30.255   10.6793
   30.390   10.2791
   30.525   10.1843
   30.660   10.8794
   30.795    9.5840
   30.930   10.6793
   31.065    9.8473
   31.200    9.9421
   31.335   10.2475
   31.470   10.1422
   31.605   10.3633
   31.740    9.8473
   31.875   10.1422
   32.010   10.2791
   32.145    9.6472
   32.280   10.0474
   32.415   10.4265
   32.550   10.2054
   32.685    9.8684
   32.820   10.1001
   32.955    9.9421
   33.090    9.7314
   33.225   10.3002
   33.360   10.3318
   33.495   10.2475
   33.630   10.1106
   33.765   10.2580
   33.900    9.9631
   34.035   10.4160
   34.170   10.3528
   34.305    9.6682
   34.440    9.9315
   34.575    9.3944
   34.710    9.7525
   34.845    9.8368
   34.980    9.7630
   35.115    9.8157
   35.250    9.9421
   35.385    9.9210
   35.520   10.0474
   35.655   10.0685
   35.790   10.1316
   35.925    9.9421
   36.060   10.5845
   36.195    9.4997
   36.330    9.7209
   36.465    9.6682
   36.600    9.5840
   36.735    9.4681
   36.870    9.9842
   37.005    9.9842
   37.140    9.7209
   37.275    9.8789
   37.410    9.6998
   37.545   10.3212
   37.680   10.1843
   37.815    9.4365
   37.950    9.7630
   38.085    9.3312
   38.220    9.9210
   38.355    9.2996
   38.490    9.5208
   38.625   10.0685
   38.760    9.3207
   38.895    9.5840
   39.030    9.4050
   39.165   10.0685
   39.300    9.6788
   39.435    9.5208
   39.570    9.4892
   39.705    9.8473
   39.840    9.9947
   39.975    9.3839
   39.990    9.7420