File: data/MOCOF-1/PXRD/PXRD_KE-035_Cu-Ka1_capillary-0.3mm_5s-deg.xyd
    1.500   23.3175
    1.635   22.1590
    1.770   20.9584
    1.905   20.0316
    2.040   19.5840
    2.175   19.8631
    2.310   20.5740
    2.445   21.8273
    2.580   23.9021
    2.715   26.1769
    2.850   30.8794
    2.985   36.0927
    3.120   44.8394
    3.255   58.0200
    3.390   76.5929
    3.525   83.9968
    3.660   62.3170
    3.795   56.7299
    3.930   50.3739
    4.065   33.5598
    4.200   20.7320
    4.335   14.8552
    4.470   12.4855
    4.605   10.6898
    4.740    9.9368
    4.875    9.2154
    5.010    8.5624
    5.145    8.1833
    5.280    8.1043
    5.415    7.7567
    5.550    7.1143
    5.685    7.6145
    5.820    7.0511
    5.955    7.0195
    6.090    6.8615
    6.225    6.9616
    6.360    7.3354
    6.495    8.1517
    6.630    9.1943
    6.765   10.9900
    6.900   14.2022
    7.035   15.0816
    7.170   11.2744
    7.305    9.5682
    7.440    9.7367
    7.575   11.1058
    7.710   12.6646
    7.845   12.9437
    7.980   11.4903
    8.115    9.3102
    8.250    8.5150
    8.385    7.7462
    8.520    7.0616
    8.655    6.8510
    8.790    6.3560
    8.925    6.3770
    9.060    6.1611
    9.195    6.4350
    9.330    6.2507
    9.465    6.2138
    9.600    5.9926
    9.735    5.8241
    9.870    6.1664
   10.005    6.1769
   10.140    6.0716
   10.275    6.0874
   10.410    6.2349
   10.545    6.1348
   10.680    5.9084
   10.815    5.8241
   10.950    6.3138
   11.085    5.8715
   11.220    6.3086
   11.355    6.2138
   11.490    6.4455
   11.625    6.5561
   11.760    6.8299
   11.895    6.2454
   12.030    6.3718
   12.165    6.3507
   12.300    6.1295
   12.435    6.0084
   12.570    6.3612
   12.705    5.9347
   12.840    6.0453
   12.975    6.0190
   13.110    6.1453
   13.245    6.0295
   13.380    5.7662
   13.515    5.8241
   13.650    5.8820
   13.785    5.7925
   13.920    5.6714
   14.055    5.9505
   14.190    5.6977
   14.325    5.8399
   14.460    5.7399
   14.595    5.9031
   14.730    5.9610
   14.865    5.7451
   15.000    5.6925
   15.135    5.7820
   15.270    5.6819
   15.405    5.7925
   15.540    6.0611
   15.675    5.8715
   15.810    5.8768
   15.945    5.8241
   16.080    5.5450
   16.215    5.8083
   16.350    5.7715
   16.485    5.8189
   16.620    5.6345
   16.755    5.8294
   16.890    5.6240
   17.025    5.6661
   17.160    5.8662
   17.295    5.4450
   17.430    5.6345
   17.565    6.0506
   17.700    5.6977
   17.835    5.6345
   17.970    6.0558
   18.105    6.0769
   18.240    5.7925
   18.375    5.7030
   18.510    5.7241
   18.645    5.8083
   18.780    5.6767
   18.915    5.8873
   19.050    5.9979
   19.185    5.7873
   19.320    5.8873
   19.455    5.8452
   19.590    5.8031
   19.725    5.8557
   19.860    6.1927
   19.995    5.9084
   20.130    6.2349
   20.265    6.1348
   20.400    6.2349
   20.535    6.2454
   20.670    6.0664
   20.805    6.1453
   20.940    6.1664
   21.075    6.6087
   21.210    6.4824
   21.345    6.0769
   21.480    6.1927
   21.615    6.1453
   21.750    6.1717
   21.885    6.0664
   22.020    6.2928
   22.155    6.2928
   22.290    6.4771
   22.425    6.4613
   22.560    6.2559
   22.695    6.2928
   22.830    6.3191
   22.965    6.1295
   23.100    6.2770
   23.235    6.1717
   23.370    6.0190
   23.505    6.0295
   23.640    6.1875
   23.775    5.8873
   23.910    6.0084
   24.045    5.8452
   24.180    5.7188
   24.315    5.8452
   24.450    5.9926
   24.585    5.9084
   24.720    5.8347
   24.855    5.7451
   24.990    5.9084
   25.125    5.7030
   25.260    5.4081
   25.395    5.3133
   25.530    5.2501
   25.665    5.2291
   25.800    5.5661
   25.935    5.3660
   26.070    5.4028
   26.205    5.4397
   26.340    5.0606
   26.475    5.3344
   26.610    5.1553
   26.745    5.1553
   26.880    5.0395
   27.015    4.9974
   27.150    5.3186
   27.285    4.9447
   27.420    5.2712
   27.555    5.1501
   27.690    5.2027
   27.825    5.2027
   27.960    5.1395
   28.095    5.0342
   28.230    4.9710
   28.365    5.1132
   28.500    4.8552
   28.635    4.8236
   28.770    5.1080
   28.905    4.7762
   29.040    4.7446
   29.175    4.9236
   29.310    4.9026
   29.445    4.8657
   29.580    4.8815
   29.715    4.6182
   29.850    4.8605
   29.985    4.6445
   30.120    4.7762
   30.255    4.7288
   30.390    4.7235
   30.525    4.9447
   30.660    4.4339
   30.795    4.7709
   30.930    4.7393
   31.065    4.7130
   31.200    4.4971
   31.335    4.5129
   31.470    4.4234
   31.605    4.4181
   31.740    4.5024
   31.875    4.5866
   32.010    4.5076
   32.145    4.6919
   32.280    4.4286
   32.415    4.4918
   32.550    4.5287
   32.685    4.1706
   32.820    4.3707
   32.955    4.4128
   33.090    4.4655
   33.225    4.2759
   33.360    4.1285
   33.495    4.3233
   33.630    4.1601
   33.765    4.3286
   33.900    4.0337
   34.035    4.1127
   34.170    4.2707
   34.305    3.8863
   34.440    3.8757
   34.575    4.3707
   34.710    3.8231
   34.845    4.1496
   34.980    3.8915
   35.115    4.0969
   35.250    3.9547
   35.385    4.0706
   35.520    4.1548
   35.655    3.7493
   35.790    3.9810
   35.925    3.8705
   36.060    3.9336
   36.195    3.9810
   36.330    3.9652
   36.465    4.0706
   36.600    3.7651
   36.735    3.9021
   36.870    3.7809
   37.005    3.7493
   37.140    4.0126
   37.275    3.7967
   37.410    3.9021
   37.545    3.7441
   37.680    3.8336
   37.815    3.6072
   37.950    4.0021
   38.085    3.7599
   38.220    3.8336
   38.355    3.8020
   38.490    3.9021
   38.625    3.7967
   38.760    3.7862
   38.895    3.7019
   39.030    3.7493
   39.165    3.7230
   39.300    3.7599
   39.435    3.7704
   39.570    3.7441
   39.705    3.4966
   39.840    3.7704
   39.975    3.9600
   39.990    3.6914