File: data/MOCOF-1/PXRD/PXRD_KE-302_Cu-Ka1_film-3mm_3s-deg.xyd
    1.500   17.6584
    1.635   15.2712
    1.770   14.2356
    1.905   12.4803
    2.040   11.4973
    2.175   10.4090
    2.310   10.9005
    2.445    9.9175
    2.580    9.3558
    2.715    9.3207
    2.850    8.9872
    2.985    9.3031
    3.120    9.2329
    3.255   10.3739
    3.390   12.5505
    3.525   17.1845
    3.660   27.8568
    3.795   61.4710
    3.930   27.3653
    4.065    8.0920
    4.200    7.8813
    4.335    8.2324
    4.470    8.1973
    4.605    7.6532
    4.740    8.3202
    4.875    7.7058
    5.010    8.4781
    5.145    9.3207
    5.280   11.5148
    5.415   18.0972
    5.550   12.9191
    5.685    9.8297
    5.820    8.5659
    5.955    8.1271
    6.090    8.0569
    6.225    7.8989
    6.360    7.5478
    6.495    6.8633
    6.630    7.5127
    6.765    8.6888
    6.900    6.4595
    7.035    6.2840
    7.170    6.2840
    7.305    6.3016
    7.440    5.8627
    7.575    6.0207
    7.710    6.8633
    7.845    7.0388
    7.980    5.2133
    8.115    5.4415
    8.250    5.1606
    8.385    5.0553
    8.520    4.8095
    8.655    4.9675
    8.790    4.8095
    8.925    5.0026
    9.060    4.9851
    9.195    5.1431
    9.330    5.1080
    9.465    7.6707
    9.600    8.4957
    9.735    4.8447
    9.870    5.3537
   10.005    4.6165
   10.140    4.7218
   10.275    6.4420
   10.410    5.3186
   10.545    5.0728
   10.680    5.0026
   10.815    5.0026
   10.950    5.8101
   11.085    5.2835
   11.220    5.3537
   11.355    4.9675
   11.490    5.1782
   11.625    5.4239
   11.760    5.6697
   11.895    4.5814
   12.030    4.4058
   12.165    4.5463
   12.300    4.7920
   12.435    4.6165
   12.570    5.1782
   12.705    4.6867
   12.840    5.0377
   12.975    6.4595
   13.110    4.5638
   13.245    4.8271
   13.380    4.2303
   13.515    5.8452
   13.650    4.9149
   13.785    4.5463
   13.920    4.5463
   14.055    5.4590
   14.190    4.8622
   14.325    4.8271
   14.460    5.0728
   14.595    4.5111
   14.730    4.8798
   14.865    4.6867
   15.000    3.9670
   15.135    5.0553
   15.270    4.6516
   15.405    4.3005
   15.540    4.5287
   15.675    4.9324
   15.810    4.4585
   15.945    4.4409
   16.080    4.5814
   16.215    4.5111
   16.350    4.7569
   16.485    4.8622
   16.620    5.2133
   16.755    4.3181
   16.890    4.1952
   17.025    4.7744
   17.160    4.8271
   17.295    4.3883
   17.430    4.1425
   17.565    5.2133
   17.700    4.7569
   17.835    4.4058
   17.970    4.6867
   18.105    4.2830
   18.240    4.5111
   18.375    4.6340
   18.510    4.3005
   18.645    4.7744
   18.780    4.5814
   18.915    4.2654
   19.050    4.5638
   19.185    4.1776
   19.320    4.0197
   19.455    4.4409
   19.590    4.3356
   19.725    4.4585
   19.860    4.3707
   19.995    4.4058
   20.130    4.4058
   20.265    4.1952
   20.400    5.1080
   20.535    4.3707
   20.670    4.0021
   20.805    4.1601
   20.940    3.8090
   21.075    3.9143
   21.210    4.0372
   21.345    3.6686
   21.480    3.7037
   21.615    4.1250
   21.750    4.2127
   21.885    4.5989
   22.020    3.8266
   22.155    4.0372
   22.290    4.6165
   22.425    3.6510
   22.560    4.6516
   22.695    3.9143
   22.830    3.8441
   22.965    4.7569
   23.100    3.7213
   23.235    4.0372
   23.370    3.5984
   23.505    3.5457
   23.640    3.4755
   23.775    3.6335
   23.910    3.8090
   24.045    3.4755
   24.180    3.6335
   24.315    3.5633
   24.450    3.7915
   24.585    3.3877
   24.720    3.5808
   24.855    3.4755
   24.990    3.5984
   25.125    3.4580
   25.260    3.5457
   25.395    3.7037
   25.530    3.5808
   25.665    3.3702
   25.800    3.7564
   25.935    3.3526
   26.070    3.1947
   26.205    3.3175
   26.340    3.1245
   26.475    3.7564
   26.610    3.5282
   26.745    2.7032
   26.880    2.8436
   27.015    3.3175
   27.150    3.2824
   27.285    3.0718
   27.420    3.1771
   27.555    2.9314
   27.690    2.9665
   27.825    2.9840
   27.960    2.7909
   28.095    3.0542
   28.230    3.3000
   28.365    3.2824
   28.500    3.3000
   28.635    2.9314
   28.770    3.3351
   28.905    3.3351
   29.040    3.2122
   29.175    3.0191
   29.310    3.1245
   29.445    2.6505
   29.580    2.8963
   29.715    2.4223
   29.850    2.6505
   29.985    2.5101
   30.120    2.7383
   30.255    2.4925
   30.390    2.1941
   30.525    2.5101
   30.660    2.9840
   30.795    2.5101
   30.930    2.6681
   31.065    2.7558
   31.200    2.1590
   31.335    2.7909
   31.470    2.8085
   31.605    2.2819
   31.740    2.5803
   31.875    2.3697
   32.010    2.2292
   32.145    2.4925
   32.280    2.2468
   32.415    2.3346
   32.550    2.5628
   32.685    2.1415
   32.820    2.4925
   32.955    2.7032
   33.090    2.2468
   33.225    2.1239
   33.360    2.2995
   33.495    2.0537
   33.630    2.6154
   33.765    2.1415
   33.900    2.1941
   34.035    2.4574
   34.170    2.1590
   34.305    2.0537
   34.440    1.8606
   34.575    2.1239
   34.710    2.2468
   34.845    2.4750
   34.980    2.3872
   35.115    2.2292
   35.250    1.8255
   35.385    2.1239
   35.520    2.2292
   35.655    2.1590
   35.790    1.9835
   35.925    1.9484
   36.060    2.3521
   36.195    1.9659
   36.330    2.0362
   36.465    2.1415
   36.600    2.3346
   36.735    2.3170
   36.870    2.0888
   37.005    1.8782
   37.140    2.0713
   37.275    2.1415
   37.410    2.0537
   37.545    1.7904
   37.680    2.1766
   37.815    2.3170
   37.950    1.8080
   38.085    2.0011
   38.220    2.2995
   38.355    2.1064
   38.490    2.1766
   38.625    2.0713
   38.760    1.9659
   38.895    2.0011
   39.030    1.8431
   39.165    2.0186
   39.300    2.0186
   39.435    1.9484
   39.570    2.1590
   39.705    2.0537
   39.840    1.7027
   39.975    2.0713
   39.990    2.0362