File: data/MOCOF-1/PXRD/PXRD_KE-305_Cu-Ka1_film-3mm_3s-deg.xyd
    1.500   12.6207
    1.635   11.4271
    1.770   10.5143
    1.905    9.5840
    2.040    8.3553
    2.175    8.6888
    2.310    8.6537
    2.445    8.1095
    2.580    7.4074
    2.715    7.9340
    2.850    7.3372
    2.985    7.0212
    3.120    8.0920
    3.255    8.5835
    3.390    9.6015
    3.525   11.4797
    3.660   15.6398
    3.795   34.2988
    3.930   15.3414
    4.065    7.0915
    4.200    7.3196
    4.335    7.1968
    4.470    6.6526
    4.605    7.0212
    4.740    7.1266
    4.875    7.5303
    5.010    7.6356
    5.145    7.6707
    5.280    9.3909
    5.415   12.5680
    5.550   10.7952
    5.685    8.5659
    5.820    8.7239
    5.955    7.1792
    6.090    6.1611
    6.225    6.9335
    6.360    6.4420
    6.495    6.4244
    6.630    6.5473
    6.765    6.5824
    6.900    6.1787
    7.035    5.7925
    7.170    5.3010
    7.305    5.4941
    7.440    5.1957
    7.575    5.1255
    7.710    5.6697
    7.845    5.2308
    7.980    5.1255
    8.115    4.7218
    8.250    4.8622
    8.385    5.0026
    8.520    4.4234
    8.655    4.6691
    8.790    4.1601
    8.925    4.5814
    9.060    4.5111
    9.195    4.1601
    9.330    4.1776
    9.465    6.1611
    9.600    6.0734
    9.735    4.0548
    9.870    4.2303
   10.005    4.2127
   10.140    4.7042
   10.275    5.5994
   10.410    4.6691
   10.545    4.1601
   10.680    4.5463
   10.815    4.5814
   10.950    4.8798
   11.085    5.0553
   11.220    4.9149
   11.355    4.5463
   11.490    4.5638
   11.625    5.1782
   11.760    4.5287
   11.895    4.6691
   12.030    4.8973
   12.165    4.4058
   12.300    4.8798
   12.435    4.4058
   12.570    3.8617
   12.705    4.3005
   12.840    4.2127
   12.975    5.1957
   13.110    4.2127
   13.245    3.8090
   13.380    4.1074
   13.515    4.7920
   13.650    4.1425
   13.785    4.3181
   13.920    4.6516
   14.055    4.8095
   14.190    4.0372
   14.325    4.1952
   14.460    4.4409
   14.595    4.7042
   14.730    4.5989
   14.865    4.1425
   15.000    4.0899
   15.135    4.1425
   15.270    4.3005
   15.405    4.0899
   15.540    3.9143
   15.675    3.8441
   15.810    4.0723
   15.945    4.2478
   16.080    4.1952
   16.215    4.0548
   16.350    4.0372
   16.485    4.1425
   16.620    4.4409
   16.755    4.3532
   16.890    4.0372
   17.025    4.7042
   17.160    3.9143
   17.295    3.6862
   17.430    4.5989
   17.565    4.0723
   17.700    3.8090
   17.835    3.7739
   17.970    3.8441
   18.105    4.0372
   18.240    3.8617
   18.375    4.2478
   18.510    4.0197
   18.645    3.6335
   18.780    3.9319
   18.915    3.9494
   19.050    4.2830
   19.185    3.7388
   19.320    3.8090
   19.455    3.8792
   19.590    3.8968
   19.725    3.9846
   19.860    3.7388
   19.995    3.9494
   20.130    3.8617
   20.265    3.7388
   20.400    4.2830
   20.535    3.6510
   20.670    3.6862
   20.805    3.9846
   20.940    3.7213
   21.075    3.7388
   21.210    3.8266
   21.345    3.9494
   21.480    3.5457
   21.615    3.3877
   21.750    3.8266
   21.885    4.0899
   22.020    3.5457
   22.155    3.4404
   22.290    3.4580
   22.425    3.6335
   22.560    4.1601
   22.695    3.4404
   22.830    3.5984
   22.965    3.9143
   23.100    3.7037
   23.235    3.3000
   23.370    3.7213
   23.505    3.3175
   23.640    3.4755
   23.775    3.1420
   23.910    3.5457
   24.045    3.1420
   24.180    3.4404
   24.315    2.9138
   24.450    2.8436
   24.585    3.0718
   24.720    3.3351
   24.855    3.3877
   24.990    3.2122
   25.125    3.2824
   25.260    3.1245
   25.395    2.8787
   25.530    3.2824
   25.665    2.8436
   25.800    3.5106
   25.935    3.1245
   26.070    2.8612
   26.205    2.9489
   26.340    2.9489
   26.475    3.2122
   26.610    2.8963
   26.745    2.9665
   26.880    3.0893
   27.015    2.9489
   27.150    2.8260
   27.285    2.7207
   27.420    2.7207
   27.555    2.8787
   27.690    2.6505
   27.825    2.8787
   27.960    2.2995
   28.095    2.7383
   28.230    2.7032
   28.365    2.6681
   28.500    2.7558
   28.635    2.6681
   28.770    2.6505
   28.905    2.6330
   29.040    2.7383
   29.175    2.7383
   29.310    2.7032
   29.445    2.3170
   29.580    2.4048
   29.715    2.2468
   29.850    2.5101
   29.985    2.1941
   30.120    2.2292
   30.255    1.8782
   30.390    2.2292
   30.525    2.3170
   30.660    2.5452
   30.795    2.1239
   30.930    2.2292
   31.065    2.2643
   31.200    2.1415
   31.335    2.3346
   31.470    2.0537
   31.605    2.3872
   31.740    2.1766
   31.875    2.0186
   32.010    1.7904
   32.145    2.1766
   32.280    2.1415
   32.415    1.9484
   32.550    2.1239
   32.685    2.0888
   32.820    1.9133
   32.955    2.0362
   33.090    2.0186
   33.225    1.6675
   33.360    1.9308
   33.495    1.9133
   33.630    1.8782
   33.765    1.7553
   33.900    1.8957
   34.035    2.0713
   34.170    2.0362
   34.305    1.8431
   34.440    1.8255
   34.575    1.7202
   34.710    1.6324
   34.845    1.9835
   34.980    1.7904
   35.115    1.8080
   35.250    1.8782
   35.385    1.9659
   35.520    1.7378
   35.655    1.9835
   35.790    1.7729
   35.925    1.8080
   36.060    1.5096
   36.195    1.8957
   36.330    2.0888
   36.465    1.6675
   36.600    2.0362
   36.735    1.9835
   36.870    1.7202
   37.005    1.7904
   37.140    1.8431
   37.275    1.7202
   37.410    1.7729
   37.545    1.9484
   37.680    1.6324
   37.815    1.8431
   37.950    1.7553
   38.085    1.7729
   38.220    1.8782
   38.355    1.5798
   38.490    1.8606
   38.625    1.7378
   38.760    1.7202
   38.895    1.5973
   39.030    1.6149
   39.165    1.7202
   39.300    1.5622
   39.435    1.7027
   39.570    1.7027
   39.705    1.6500
   39.840    1.6675
   39.975    1.5798
   39.990    1.5798