File: data/MOCOF-1/PXRD/PXRD_KE-010_Cu-Ka1_capillary-1mm_5s-deg.xyd
    1.500   33.9442
    1.635   29.4787
    1.770   25.1606
    1.905   22.1064
    2.040   20.1264
    2.175   17.6725
    2.310   16.5666
    2.445   14.9868
    2.580   14.2285
    2.715   12.9647
    2.850   12.7330
    2.985   12.6172
    3.120   10.7320
    3.255   10.9005
    3.390   10.7320
    3.525    9.7841
    3.660    9.6261
    3.795    9.7209
    3.930    9.6367
    4.065    8.7204
    4.200    8.7941
    4.335    8.8573
    4.470    8.6256
    4.605    8.2780
    4.740    8.7836
    4.875    8.5308
    5.010    7.7514
    5.145    8.2149
    5.280    7.9621
    5.415    8.3202
    5.550    7.7936
    5.685    8.0147
    5.820    7.8146
    5.955    7.6567
    6.090    7.3196
    6.225    7.8568
    6.360    7.4882
    6.495    7.9726
    6.630    7.6777
    6.765    7.7725
    6.900    8.1517
    7.035    7.9516
    7.170    7.8568
    7.305    7.6567
    7.440    8.0253
    7.575    7.8357
    7.710    7.7199
    7.845    7.9726
    7.980    7.9621
    8.115    7.9094
    8.250    8.3728
    8.385    8.2359
    8.520    8.4466
    8.655    8.0358
    8.790    7.8884
    8.925    7.6567
    9.060    8.1622
    9.195    8.4571
    9.330    8.0463
    9.465    8.1938
    9.600    8.3096
    9.735    7.5513
    9.870    8.1201
   10.005    8.0253
   10.140    8.2780
   10.275    8.2254
   10.410    7.5829
   10.545    8.3939
   10.680    7.4250
   10.815    7.7830
   10.950    7.8989
   11.085    7.9305
   11.220    7.5513
   11.355    7.9726
   11.490    7.4776
   11.625    7.7304
   11.760    7.4671
   11.895    7.1195
   12.030    6.7825
   12.165    7.0353
   12.300    7.2038
   12.435    7.1301
   12.570    7.5197
   12.705    7.3302
   12.840    7.2880
   12.975    7.2775
   13.110    7.2670
   13.245    6.8246
   13.380    7.3828
   13.515    6.7930
   13.650    7.2775
   13.785    7.2143
   13.920    6.8246
   14.055    7.0563
   14.190    6.9194
   14.325    6.8668
   14.460    7.4460
   14.595    7.0248
   14.730    6.9826
   14.865    6.5719
   15.000    6.9510
   15.135    6.7825
   15.270    7.4882
   15.405    6.7930
   15.540    6.5087
   15.675    7.1722
   15.810    7.2038
   15.945    7.5513
   16.080    7.0248
   16.215    7.0563
   16.350    7.0563
   16.485    7.2038
   16.620    7.0142
   16.755    6.6035
   16.890    6.9405
   17.025    6.7404
   17.160    6.7404
   17.295    6.8562
   17.430    7.0458
   17.565    7.1617
   17.700    6.8246
   17.835    7.1301
   17.970    6.8668
   18.105    6.7615
   18.240    7.3091
   18.375    7.3407
   18.510    7.2249
   18.645    7.0879
   18.780    7.3512
   18.915    7.4460
   19.050    6.6140
   19.185    6.9721
   19.320    7.4250
   19.455    7.0142
   19.590    7.0774
   19.725    6.5929
   19.860    6.8352
   19.995    7.2249
   20.130    6.9826
   20.265    7.4039
   20.400    7.1722
   20.535    6.9194
   20.670    7.5935
   20.805    7.4039
   20.940    7.2775
   21.075    7.0774
   21.210    7.3302
   21.345    7.1301
   21.480    7.3302
   21.615    7.4460
   21.750    7.1406
   21.885    7.0563
   22.020    7.7620
   22.155    6.9616
   22.290    7.5513
   22.425    7.1406
   22.560    7.5829
   22.695    6.9932
   22.830    7.1195
   22.965    6.8773
   23.100    7.4460
   23.235    7.4460
   23.370    7.0563
   23.505    7.0563
   23.640    7.4882
   23.775    7.1301
   23.910    6.8773
   24.045    7.0142
   24.180    7.0879
   24.315    6.6561
   24.450    7.0774
   24.585    6.8036
   24.720    6.9826
   24.855    7.3091
   24.990    6.9089
   25.125    7.1827
   25.260    6.7720
   25.395    7.3934
   25.530    6.9194
   25.665    6.5508
   25.800    6.9089
   25.935    6.8246
   26.070    6.6561
   26.205    7.1406
   26.340    6.8457
   26.475    6.7720
   26.610    6.8141
   26.745    6.3928
   26.880    6.7615
   27.015    6.2454
   27.150    6.2033
   27.285    6.3823
   27.420    6.2559
   27.555    6.2875
   27.690    6.3191
   27.825    6.1190
   27.960    6.1717
   28.095    6.2349
   28.230    6.6140
   28.365    6.1401
   28.500    5.9821
   28.635    6.2770
   28.770    6.4455
   28.905    6.1506
   29.040    6.0874
   29.175    6.2138
   29.310    6.2665
   29.445    6.2981
   29.580    5.7293
   29.715    6.1506
   29.850    5.7293
   29.985    5.9189
   30.120    6.0558
   30.255    5.6767
   30.390    5.6661
   30.525    5.9189
   30.660    5.7925
   30.795    5.7504
   30.930    5.6872
   31.065    5.7504
   31.200    6.1822
   31.335    6.0242
   31.470    5.8557
   31.605    5.9400
   31.740    5.4766
   31.875    5.6029
   32.010    5.7293
   32.145    5.8136
   32.280    5.5292
   32.415    5.2449
   32.550    5.2975
   32.685    5.5924
   32.820    5.4028
   32.955    5.2870
   33.090    4.9816
   33.225    5.2238
   33.360    5.3923
   33.495    5.1290
   33.630    5.2765
   33.765    5.1501
   33.900    4.8763
   34.035    4.9605
   34.170    5.2870
   34.305    5.3607
   34.440    4.9605
   34.575    5.2133
   34.710    5.4766
   34.845    5.0764
   34.980    5.1606
   35.115    4.9289
   35.250    5.0237
   35.385    4.5182
   35.520    5.1817
   35.655    5.1922
   35.790    4.9605
   35.925    4.7077
   36.060    4.8552
   36.195    4.7077
   36.330    4.7604
   36.465    5.0342
   36.600    4.9605
   36.735    5.0658
   36.870    4.7183
   37.005    4.7604
   37.140    4.4550
   37.275    4.6972
   37.410    5.0974
   37.545    4.2022
   37.680    5.1501
   37.815    4.8552
   37.950    4.6656
   38.085    4.6340
   38.220    4.5919
   38.355    4.6445
   38.490    4.4866
   38.625    4.3075
   38.760    4.3497
   38.895    4.5603
   39.030    4.4128
   39.165    4.6445
   39.300    4.8763
   39.435    4.6972
   39.570    4.9078
   39.705    4.7499
   39.840    4.8025
   39.975    4.7499
   39.990    4.6551