File: data/MOCOF-1/PXRD/PXRD_KE-285C_Cu-Ka1_capillary-1mm_3s-deg.xyd
    1.500   21.2041
    1.635   17.2722
    1.770   16.0435
    1.905   14.2882
    2.040   11.6904
    2.175   11.9010
    2.310   10.3563
    2.445    9.7420
    2.580    9.0925
    2.715    8.2675
    2.850    8.4957
    2.985    8.5133
    3.120    8.7414
    3.255   10.7776
    3.390   12.6207
    3.525   15.6925
    3.660   22.2222
    3.795   43.4088
    3.930   12.1467
    4.065    6.4244
    4.200    6.2489
    4.335    5.5819
    4.470    5.8101
    4.605    5.9505
    4.740    5.7574
    4.875    6.3191
    5.010    6.7930
    5.145    8.2851
    5.280   10.0930
    5.415   19.1680
    5.550    8.1797
    5.685    5.9856
    5.820    6.1085
    5.955    5.8101
    6.090    5.3888
    6.225    5.4941
    6.360    5.7925
    6.495    6.6000
    6.630    8.5308
    6.765    8.4079
    6.900    5.5468
    7.035    5.3010
    7.170    5.0377
    7.305    5.1255
    7.440    5.7223
    7.575    5.6697
    7.710    7.9340
    7.845    6.0909
    7.980    5.0202
    8.115    5.2835
    8.250    5.1255
    8.385    5.1782
    8.520    5.1606
    8.655    5.7750
    8.790    5.2133
    8.925    5.1606
    9.060    5.0728
    9.195    5.8101
    9.330    6.4420
    9.465    9.9526
    9.600    6.6702
    9.735    5.6697
    9.870    5.4941
   10.005    5.4590
   10.140    5.6697
   10.275    7.5829
   10.410    5.0553
   10.545    5.1255
   10.680    5.1957
   10.815    5.2133
   10.950    6.6877
   11.085    5.5468
   11.220    5.1782
   11.355    5.1431
   11.490    5.1080
   11.625    6.8282
   11.760    5.5994
   11.895    5.0202
   12.030    5.0553
   12.165    5.4766
   12.300    5.0026
   12.435    5.4590
   12.570    5.0904
   12.705    5.1431
   12.840    5.4064
   12.975    5.8101
   13.110    5.0728
   13.245    4.9851
   13.380    4.9675
   13.515    5.5819
   13.650    5.1957
   13.785    5.0377
   13.920    5.0202
   14.055    6.5649
   14.190    4.6340
   14.325    4.8798
   14.460    5.2659
   14.595    4.8622
   14.730    5.2659
   14.865    4.9324
   15.000    4.9500
   15.135    5.6521
   15.270    5.3712
   15.405    5.0202
   15.540    5.1782
   15.675    5.4590
   15.810    5.3537
   15.945    5.3712
   16.080    5.5994
   16.215    5.5117
   16.350    5.6170
   16.485    5.8978
   16.620    5.6170
   16.755    5.7574
   16.890    5.8978
   17.025    6.4244
   17.160    5.9154
   17.295    5.9154
   17.430    5.6697
   17.565    5.9329
   17.700    5.7750
   17.835    6.0207
   17.970    6.1787
   18.105    5.5468
   18.240    6.1962
   18.375    6.0734
   18.510    5.5643
   18.645    5.7048
   18.780    6.3191
   18.915    6.1436
   19.050    6.2665
   19.185    5.5819
   19.320    6.4946
   19.455    5.9681
   19.590    6.9861
   19.725    5.7399
   19.860    6.8633
   19.995    6.4069
   20.130    5.8978
   20.265    6.8633
   20.400    6.9510
   20.535    6.6000
   20.670    6.7755
   20.805    7.9691
   20.940    8.8117
   21.075   14.8499
   21.210   26.8913
   21.345   32.3328
   21.480   28.8222
   21.615    9.6718
   21.750    7.0037
   21.885    6.3016
   22.020    6.2138
   22.155    6.4946
   22.290    5.5643
   22.425    6.3191
   22.560    6.5649
   22.695    6.0383
   22.830    6.6175
   22.965    6.5473
   23.100    5.7750
   23.235    6.3367
   23.370    6.5824
   23.505   10.0579
   23.640   12.5329
   23.775   13.1824
   23.910   11.3393
   24.045    5.9154
   24.180    5.3712
   24.315    5.6872
   24.450    5.1255
   24.585    5.0904
   24.720    4.5638
   24.855    4.8271
   24.990    5.0377
   25.125    4.7744
   25.260    4.6691
   25.395    5.1431
   25.530    4.8798
   25.665    4.7042
   25.800    5.3712
   25.935    4.6516
   26.070    4.4936
   26.205    4.6867
   26.340    4.7042
   26.475    4.8973
   26.610    4.5463
   26.745    4.4409
   26.880    4.7744
   27.015    5.6872
   27.150    4.6165
   27.285    4.6165
   27.420    4.3181
   27.555    4.5814
   27.690    4.3532
   27.825    4.5111
   27.960    4.2478
   28.095    4.5989
   28.230    4.3532
   28.365    4.8798
   28.500    4.2478
   28.635    4.5111
   28.770    4.2127
   28.905    4.0723
   29.040    4.4409
   29.175    4.3181
   29.310    4.4058
   29.445    4.8447
   29.580    4.4058
   29.715    4.7569
   29.850    4.2478
   29.985    4.3181
   30.120    4.1601
   30.255    3.9846
   30.390    4.4760
   30.525    4.0021
   30.660    4.1776
   30.795    3.6862
   30.930    3.8617
   31.065    4.0197
   31.200    3.4580
   31.335    3.8968
   31.470    4.0021
   31.605    3.7915
   31.740    3.8441
   31.875    3.9494
   32.010    3.8617
   32.145    3.9846
   32.280    3.7388
   32.415    3.8441
   32.550    2.9314
   32.685    3.9670
   32.820    3.3702
   32.955    3.3702
   33.090    3.4931
   33.225    3.6862
   33.360    3.3877
   33.495    3.2649
   33.630    3.6510
   33.765    3.3526
   33.900    3.6159
   34.035    3.1947
   34.170    3.0718
   34.305    3.1245
   34.440    3.3175
   34.575    3.4580
   34.710    3.3351
   34.845    3.2473
   34.980    3.1245
   35.115    3.3526
   35.250    3.4404
   35.385    3.0718
   35.520    3.4053
   35.655    3.4053
   35.790    3.7213
   35.925    3.6862
   36.060    3.7739
   36.195    4.2303
   36.330    3.8266
   36.465    3.5633
   36.600    3.3351
   36.735    2.9665
   36.870    2.7383
   37.005    2.9665
   37.140    3.1596
   37.275    2.8436
   37.410    3.1596
   37.545    3.1420
   37.680    3.0893
   37.815    2.7909
   37.950    3.1947
   38.085    2.8787
   38.220    2.9665
   38.355    3.1947
   38.490    3.2649
   38.625    2.8963
   38.760    2.6856
   38.895    2.7734
   39.030    2.7383
   39.165    3.0893
   39.300    3.1771
   39.435    3.0718
   39.570    3.3000
   39.705    3.1596
   39.840    2.7558
   39.975    3.1069
   39.990    3.1420