File: data/MOCOF-1/PXRD/PXRD_KE-069_Cu-Ka1_capillary-1mm_5s-deg.xyd
    1.500   16.1032
    1.635   14.9658
    1.770   13.7967
    1.905   13.3333
    2.040   12.7436
    2.175   12.9963
    2.310   13.8073
    2.445   14.5761
    2.580   15.1448
    2.715   18.2517
    2.850   20.4423
    2.985   25.3713
    3.120   31.8167
    3.255   42.0221
    3.390   61.7904
    3.525   72.0800
    3.660   41.9695
    3.795   40.4423
    3.930   52.5119
    4.065   28.5729
    4.200   21.1480
    4.335   14.4392
    4.470   10.2159
    4.605    8.4571
    4.740    7.4776
    4.875    6.4350
    5.010    6.5403
    5.145    6.2033
    5.280    6.5929
    5.415    8.0358
    5.550   10.4160
    5.685    4.8973
    5.820    5.0237
    5.955    4.9816
    6.090    5.2027
    6.225    5.1080
    6.360    5.5819
    6.495    5.4239
    6.630    6.6667
    6.765    8.4781
    6.900    8.8257
    7.035    9.8999
    7.170    6.6983
    7.305    6.2349
    7.440    5.4871
    7.575    5.5819
    7.710    6.2033
    7.845    7.6145
    7.980    6.8141
    8.115    6.5719
    8.250    6.3191
    8.385    6.3086
    8.520    5.7399
    8.655    5.5292
    8.790    5.3081
    8.925    5.0132
    9.060    5.0974
    9.195    4.6867
    9.330    4.6551
    9.465    5.1080
    9.600    6.9932
    9.735    4.2865
    9.870    4.4023
   10.005    4.2865
   10.140    4.3391
   10.275    5.1395
   10.410    5.0658
   10.545    4.6445
   10.680    4.6235
   10.815    4.4128
   10.950    4.3286
   11.085    5.2449
   11.220    4.1390
   11.355    4.3391
   11.490    4.2022
   11.625    4.5498
   11.760    5.6240
   11.895    4.7604
   12.030    4.7393
   12.165    4.4655
   12.300    4.3075
   12.435    4.4234
   12.570    4.4866
   12.705    4.1811
   12.840    4.3707
   12.975    5.0448
   13.110    4.2759
   13.245    4.2865
   13.380    4.0442
   13.515    4.5603
   13.650    4.6972
   13.785    4.6340
   13.920    4.1074
   14.055    4.2759
   14.190    4.3707
   14.325    4.2865
   14.460    4.2127
   14.595    4.0548
   14.730    4.0232
   14.865    4.1180
   15.000    3.8863
   15.135    4.3181
   15.270    4.0548
   15.405    4.1706
   15.540    3.8231
   15.675    4.2654
   15.810    4.0126
   15.945    4.3497
   16.080    4.0337
   16.215    4.2127
   16.350    4.1285
   16.485    4.1390
   16.620    3.8863
   16.755    3.9600
   16.890    4.1811
   17.025    4.3075
   17.160    4.3286
   17.295    4.0548
   17.430    3.8757
   17.565    3.9073
   17.700    4.1706
   17.835    4.1811
   17.970    4.3181
   18.105    4.1917
   18.240    4.2759
   18.375    4.4655
   18.510    4.0232
   18.645    4.4339
   18.780    4.1180
   18.915    4.6445
   19.050    4.6130
   19.185    4.0653
   19.320    3.9073
   19.455    4.2443
   19.590    4.3602
   19.725    4.0126
   19.860    4.2549
   19.995    4.3391
   20.130    4.5076
   20.265    4.3391
   20.400    4.4971
   20.535    4.3813
   20.670    4.4550
   20.805    4.5392
   20.940    4.4339
   21.075    4.9605
   21.210    4.2233
   21.345    4.7499
   21.480    4.4866
   21.615    4.3813
   21.750    4.3391
   21.885    4.7183
   22.020    4.3918
   22.155    4.5603
   22.290    4.5287
   22.425    4.3813
   22.560    4.5814
   22.695    5.0237
   22.830    4.2549
   22.965    4.3497
   23.100    4.2654
   23.235    4.4128
   23.370    4.6235
   23.505    4.4234
   23.640    4.2127
   23.775    3.9494
   23.910    4.4866
   24.045    4.7077
   24.180    4.1917
   24.315    4.2338
   24.450    4.5182
   24.585    4.3181
   24.720    4.2022
   24.855    4.0653
   24.990    4.2233
   25.125    4.3707
   25.260    3.9916
   25.395    4.2654
   25.530    3.8441
   25.665    4.0021
   25.800    4.2549
   25.935    4.3286
   26.070    4.0548
   26.205    3.9916
   26.340    3.7915
   26.475    3.7599
   26.610    3.6440
   26.745    3.7704
   26.880    4.2549
   27.015    3.7493
   27.150    4.1285
   27.285    3.5282
   27.420    3.6756
   27.555    3.5598
   27.690    4.0969
   27.825    3.7915
   27.960    3.8336
   28.095    3.8336
   28.230    3.7599
   28.365    3.5492
   28.500    3.8441
   28.635    3.5808
   28.770    3.4650
   28.905    3.5176
   29.040    3.7493
   29.175    3.3807
   29.310    3.4966
   29.445    3.4018
   29.580    3.2754
   29.715    3.5914
   29.850    3.4544
   29.985    3.5176
   30.120    3.6019
   30.255    3.5176
   30.390    3.3491
   30.525    3.2649
   30.660    3.3702
   30.795    3.3070
   30.930    3.1806
   31.065    3.2122
   31.200    3.3386
   31.335    3.3070
   31.470    3.5492
   31.605    3.3491
   31.740    3.6124
   31.875    3.2543
   32.010    3.6335
   32.145    3.8020
   32.280    3.2543
   32.415    3.1596
   32.550    3.4966
   32.685    3.1701
   32.820    3.1912
   32.955    3.2543
   33.090    2.8541
   33.225    3.1069
   33.360    2.8436
   33.495    3.1280
   33.630    3.0542
   33.765    3.2543
   33.900    3.4229
   34.035    2.9595
   34.170    2.6330
   34.305    3.2017
   34.440    3.0121
   34.575    2.8541
   34.710    2.7593
   34.845    2.7593
   34.980    2.7593
   35.115    2.8331
   35.250    2.7593
   35.385    2.5908
   35.520    2.7278
   35.655    2.5803
   35.790    2.7699
   35.925    2.7067
   36.060    2.7699
   36.195    2.3170
   36.330    2.8120
   36.465    2.8436
   36.600    2.9805
   36.735    2.5698
   36.870    2.4961
   37.005    2.6751
   37.140    2.4855
   37.275    2.4539
   37.410    2.4329
   37.545    2.4961
   37.680    2.4961
   37.815    2.5698
   37.950    2.7172
   38.085    2.5908
   38.220    2.4118
   38.355    2.4223
   38.490    2.2538
   38.625    2.6014
   38.760    2.4855
   38.895    2.6646
   39.030    2.3065
   39.165    2.3802
   39.300    2.8015
   39.435    2.5171
   39.570    2.6962
   39.705    2.4961
   39.840    2.4855
   39.975    2.5382
   39.990    2.8015