File: data/MOCOF-1/PXRD/PXRD_KE-168_Cu-Ka1_capillary-1mm_5s-deg.xyd
    1.500   37.2617
    1.635   32.7225
    1.770   28.2780
    1.905   26.5719
    2.040   24.2865
    2.175   22.3381
    2.310   21.4639
    2.445   21.7483
    2.580   21.5903
    2.715   22.6856
    2.850   23.9810
    2.985   27.3407
    3.120   32.5540
    3.255   42.8436
    3.390   63.9600
    3.525   65.6030
    3.660   33.1227
    3.795   29.5524
    3.930   33.1859
    4.065   35.6609
    4.200   30.0579
    4.335   20.2212
    4.470   14.5234
    4.605   10.9847
    4.740    9.7314
    4.875    9.4997
    5.010    9.1206
    5.145    9.0785
    5.280    8.9415
    5.415    8.7414
    5.550    8.9731
    5.685    8.0779
    5.820    8.3307
    5.955    8.1306
    6.090    8.5729
    6.225    8.2359
    6.360    8.8573
    6.495    8.5308
    6.630    9.2259
    6.765    9.9947
    6.900   12.9226
    7.035   12.8173
    7.170    9.2575
    7.305    8.7414
    7.440    8.7730
    7.575    8.6045
    7.710    9.0679
    7.845    9.2154
    7.980    9.6577
    8.115    9.9210
    8.250    9.9947
    8.385    9.5945
    8.520    9.9105
    8.655    8.7309
    8.790    8.5624
    8.925    8.2570
    9.060    8.5519
    9.195    7.7725
    9.330    8.5729
    9.465    7.9937
    9.600    8.2043
    9.735    7.8673
    9.870    8.1095
   10.005    8.1938
   10.140    9.8052
   10.275    8.2359
   10.410    8.2675
   10.545    8.2043
   10.680    8.1727
   10.815    8.2043
   10.950    7.6356
   11.085    7.6356
   11.220    7.8041
   11.355    7.5408
   11.490    7.9726
   11.625    7.6567
   11.760    7.9094
   11.895    8.3307
   12.030    8.3202
   12.165    7.6988
   12.300    7.7725
   12.435    7.9516
   12.570    7.7409
   12.705    7.8462
   12.840    7.7936
   12.975    7.5092
   13.110    7.5829
   13.245    7.3302
   13.380    7.3407
   13.515    7.3091
   13.650    7.4460
   13.785    7.1827
   13.920    7.4250
   14.055    7.7304
   14.190    7.4144
   14.325    7.3934
   14.460    7.5724
   14.595    7.9200
   14.730    7.5829
   14.865    7.1933
   15.000    7.2038
   15.135    7.6567
   15.270    7.6040
   15.405    7.7514
   15.540    7.7304
   15.675    7.8462
   15.810    7.7093
   15.945    7.0353
   16.080    7.4039
   16.215    7.6251
   16.350    7.3091
   16.485    7.2880
   16.620    7.5092
   16.755    7.2775
   16.890    7.1722
   17.025    7.2354
   17.160    7.0458
   17.295    7.5303
   17.430    7.2565
   17.565    7.5513
   17.700    7.2354
   17.835    7.0774
   17.970    7.5092
   18.105    7.6883
   18.240    7.5619
   18.375    7.5935
   18.510    7.8462
   18.645    7.6777
   18.780    7.2986
   18.915    7.0669
   19.050    7.6672
   19.185    7.6567
   19.320    7.7409
   19.455    7.4250
   19.590    7.8778
   19.725    7.7620
   19.860    7.8778
   19.995    7.8568
   20.130    7.8989
   20.265    7.8673
   20.400    8.3307
   20.535    8.3096
   20.670    7.9305
   20.805    8.2359
   20.940    8.2991
   21.075    7.9726
   21.210    7.7093
   21.345    7.7620
   21.480    7.6672
   21.615    8.4992
   21.750    8.0569
   21.885    7.8252
   22.020    8.2464
   22.155    7.9831
   22.290    8.0990
   22.425    7.5935
   22.560    8.1201
   22.695    7.9937
   22.830    7.6356
   22.965    8.7941
   23.100    7.6356
   23.235    8.1727
   23.370    7.7199
   23.505    8.0042
   23.640    7.6145
   23.775    7.9726
   23.910    7.6988
   24.045    7.8146
   24.180    7.9410
   24.315    7.7409
   24.450    7.9200
   24.585    8.0042
   24.720    7.6672
   24.855    7.6251
   24.990    7.1722
   25.125    7.5935
   25.260    7.1090
   25.395    7.6883
   25.530    7.4144
   25.665    7.1511
   25.800    7.4987
   25.935    7.5724
   26.070    7.6883
   26.205    7.2354
   26.340    7.2354
   26.475    7.4250
   26.610    7.2038
   26.745    6.9405
   26.880    6.9721
   27.015    7.7830
   27.150    6.8036
   27.285    6.9932
   27.420    7.0353
   27.555    7.0563
   27.690    6.9721
   27.825    6.9616
   27.960    7.1406
   28.095    7.0879
   28.230    7.4355
   28.365    7.1933
   28.500    7.0669
   28.635    7.4671
   28.770    6.6140
   28.905    6.8141
   29.040    6.7930
   29.175    7.0563
   29.310    7.0248
   29.445    7.1511
   29.580    6.8773
   29.715    6.6351
   29.850    6.6351
   29.985    6.8773
   30.120    6.5403
   30.255    6.3296
   30.390    6.6983
   30.525    6.5719
   30.660    6.5087
   30.795    6.6351
   30.930    6.8668
   31.065    6.3507
   31.200    6.1190
   31.335    6.2665
   31.470    6.2138
   31.605    6.4244
   31.740    6.9510
   31.875    6.6561
   32.010    6.2033
   32.145    6.9510
   32.280    6.2454
   32.415    6.2875
   32.550    6.4666
   32.685    6.4350
   32.820    6.4244
   32.955    6.3928
   33.090    6.2559
   33.225    6.4455
   33.360    6.5403
   33.495    6.2559
   33.630    6.2454
   33.765    6.4455
   33.900    6.1717
   34.035    6.8141
   34.170    5.9189
   34.305    6.0769
   34.440    6.4666
   34.575    6.1717
   34.710    6.7930
   34.845    6.2454
   34.980    6.1927
   35.115    6.1927
   35.250    6.2981
   35.385    6.4139
   35.520    6.2138
   35.655    6.4666
   35.790    6.2981
   35.925    6.4034
   36.060    6.4350
   36.195    6.0453
   36.330    6.3296
   36.465    6.5403
   36.600    6.0348
   36.735    5.8136
   36.870    6.0242
   37.005    5.7820
   37.140    6.4034
   37.275    5.9505
   37.410    6.4666
   37.545    5.9821
   37.680    5.9189
   37.815    6.0874
   37.950    6.3612
   38.085    6.2349
   38.220    5.7820
   38.355    5.9926
   38.490    6.4560
   38.625    6.0242
   38.760    6.2559
   38.895    5.9505
   39.030    6.4139
   39.165    5.9926
   39.300    6.1295
   39.435    5.8873
   39.570    6.1085
   39.705    5.9084
   39.840    6.5719
   39.975    6.1190
   39.990    5.7188