File: data/MOCOF-1/PXRD/PXRD_KE-076_Cu-Ka1_capillary-1mm_60s-deg.xyd
    1.500   14.2426
    1.635   14.0442
    1.770   14.1934
    1.905   14.6533
    2.040   15.3835
    2.175   16.6447
    2.310   18.1789
    2.445   20.7197
    2.580   23.9582
    2.715   28.7116
    2.850   35.1334
    2.985   44.9368
    3.120   60.3116
    3.255   87.7014
    3.390  143.8424
    3.525  103.9231
    3.660   68.2149
    3.795   93.0384
    3.930   78.6388
    4.065   27.5391
    4.200   13.3746
    4.335    9.3637
    4.470    7.7093
    4.605    7.0502
    4.740    6.5903
    4.875    6.3683
    5.010    6.2761
    5.145    6.5508
    5.280    6.4613
    5.415    5.9619
    5.550    5.7811
    5.685    5.5907
    5.820    5.6837
    5.955    5.5872
    6.090    5.7741
    6.225    6.1094
    6.360    6.9115
    6.495    8.0814
    6.630   10.4081
    6.765   15.0421
    6.900   25.7214
    7.035   15.8750
    7.170    8.2780
    7.305    7.9647
    7.440    9.3119
    7.575   12.7137
    7.710   18.8985
    7.845   19.6296
    7.980   12.1266
    8.115    7.8445
    8.250    6.3375
    8.385    5.8382
    8.520    5.4169
    8.655    5.2291
    8.790    5.0412
    8.925    4.9228
    9.060    4.9754
    9.195    4.8438
    9.330    4.9087
    9.465    4.8587
    9.600    4.9386
    9.735    4.8060
    9.870    4.8438
   10.005    4.9307
   10.140    4.9184
   10.275    5.0781
   10.410    5.4353
   10.545    5.0509
   10.680    4.9763
   10.815    4.9333
   10.950    4.9860
   11.085    5.0386
   11.220    5.1483
   11.355    5.3862
   11.490    5.7934
   11.625    6.3498
   11.760    6.5815
   11.895    6.0628
   12.030    5.6249
   12.165    5.2589
   12.300    5.2765
   12.435    5.1808
   12.570    5.0992
   12.705    5.2027
   12.840    5.3045
   12.975    5.3344
   13.110    5.4344
   13.245    5.3300
   13.380    5.3344
   13.515    5.1439
   13.650    5.0369
   13.785    5.0807
   13.920    4.9438
   14.055    4.9473
   14.190    4.9588
   14.325    4.9754
   14.460    4.8780
   14.595    4.8394
   14.730    4.9816
   14.865    5.0255
   15.000    5.0790
   15.135    5.1843
   15.270    5.2466
   15.405    5.3405
   15.540    5.3423
   15.675    5.3695
   15.810    5.1457
   15.945    5.1194
   16.080    4.9807
   16.215    4.8859
   16.350    4.8640
   16.485    4.7341
   16.620    4.8078
   16.755    4.7744
   16.890    4.8745
   17.025    4.9517
   17.160    4.9789
   17.295    5.0544
   17.430    5.1659
   17.565    5.1764
   17.700    5.2080
   17.835    5.3502
   17.970    5.1264
   18.105    5.2256
   18.240    5.1290
   18.375    5.1474
   18.510    5.0000
   18.645    5.0412
   18.780    4.9763
   18.915    4.9921
   19.050    5.1018
   19.185    5.1632
   19.320    5.1869
   19.455    5.3458
   19.590    5.4248
   19.725    5.6029
   19.860    5.7469
   19.995    5.5986
   20.130    5.7074
   20.265    5.8768
   20.400    5.7846
   20.535    5.8066
   20.670    5.8513
   20.805    5.9180
   20.940    6.2050
   21.075    6.3156
   21.210    6.0277
   21.345    6.0005
   21.480    5.8645
   21.615    5.8399
   21.750    5.7548
   21.885    5.8399
   22.020    5.9514
   22.155    6.0032
   22.290    6.0681
   22.425    6.1559
   22.560    6.3121
   22.695    6.3086
   22.830    6.2375
   22.965    6.0479
   23.100    5.8522
   23.235    5.5950
   23.370    5.5301
   23.505    5.4494
   23.640    5.3739
   23.775    5.4932
   23.910    5.5082
   24.045    5.4704
   24.180    5.4151
   24.315    5.5345
   24.450    5.5556
   24.585    5.7732
   24.720    5.5696
   24.855    5.4239
   24.990    5.3397
   25.125    5.2773
   25.260    5.0395
   25.395    5.0895
   25.530    4.9491
   25.665    5.0342
   25.800    4.9710
   25.935    4.9930
   26.070    4.8991
   26.205    4.9781
   26.340    5.0228
   26.475    4.9517
   26.610    4.9307
   26.745    4.9219
   26.880    4.8640
   27.015    4.8569
   27.150    4.7999
   27.285    4.9491
   27.420    4.9184
   27.555    4.8368
   27.690    4.7859
   27.825    4.7156
   27.960    4.7516
   28.095    4.8078
   28.230    4.7806
   28.365    4.6419
   28.500    4.5910
   28.635    4.5463
   28.770    4.5296
   28.905    4.5612
   29.040    4.5910
   29.175    4.5366
   29.310    4.7323
   29.445    4.6024
   29.580    4.5331
   29.715    4.4295
   29.850    4.4796
   29.985    4.4576
   30.120    4.4392
   30.255    4.5366
   30.390    4.4093
   30.525    4.4102
   30.660    4.3865
   30.795    4.3971
   30.930    4.2593
   31.065    4.3382
   31.200    4.3646
   31.335    4.3075
   31.470    4.3874
   31.605    4.3233
   31.740    4.3795
   31.875    4.3734
   32.010    4.2865
   32.145    4.2408
   32.280    4.2566
   32.415    4.2057
   32.550    4.1680
   32.685    4.1478
   32.820    4.0644
   32.955    3.9810
   33.090    4.0082
   33.225    4.0521
   33.360    3.9995
   33.495    3.9731
   33.630    3.9451
   33.765    3.8968
   33.900    3.8283
   34.035    3.7950
   34.170    3.8775
   34.305    3.9029
   34.440    3.8081
   34.575    3.7853
   34.710    3.7063
   34.845    3.7757
   34.980    3.6756
   35.115    3.6712
   35.250    3.6949
   35.385    3.7134
   35.520    3.7204
   35.655    3.6572
   35.790    3.6344
   35.925    3.5949
   36.060    3.6177
   36.195    3.4466
   36.330    3.5352
   36.465    3.5115
   36.600    3.4869
   36.735    3.4975
   36.870    3.5212
   37.005    3.4746
   37.140    3.4351
   37.275    3.4825
   37.410    3.4413
   37.545    3.4395
   37.680    3.4044
   37.815    3.4167
   37.950    3.3702
   38.085    3.3948
   38.220    3.3123
   38.355    3.3158
   38.490    3.2693
   38.625    3.2895
   38.760    3.3921
   38.895    3.3834
   39.030    3.3123
   39.165    3.3553
   39.300    3.2930
   39.435    3.3535
   39.570    3.3825
   39.705    3.3026
   39.840    3.3193
   39.975    3.2693
   39.990    3.3246