File: data/MOCOF-1/PXRD/PXRD_KE-294_Cu-Ka1_film-3mm_3s-deg.xyd
    1.500   18.8871
    1.635   17.3249
    1.770   15.3063
    1.905   13.5510
    2.040   12.9366
    2.175   13.1473
    2.310   12.3398
    2.445   12.8313
    2.580   14.0776
    2.715   16.2893
    2.850   21.8361
    2.985   32.0344
    3.120   57.2055
    3.255   33.1051
    3.390   22.3451
    3.525   28.0147
    3.660   45.0588
    3.795   72.3363
    3.930   18.5361
    4.065   11.4095
    4.200    9.9702
    4.335    8.8292
    4.470    8.7941
    4.605    8.2500
    4.740    8.6888
    4.875    9.1978
    5.010    9.7244
    5.145   11.0760
    5.280   14.8675
    5.415   15.1834
    5.550   10.9356
    5.685   10.4616
    5.820    8.8819
    5.955    8.5484
    6.090    8.5133
    6.225   10.1808
    6.360   14.5866
    6.495   11.1287
    6.630    9.4787
    6.765    7.6707
    6.900    7.0915
    7.035    7.6707
    7.170    7.7585
    7.305    8.3202
    7.440    7.7409
    7.575    9.2505
    7.710    7.9691
    7.845    7.0739
    7.980    6.7930
    8.115    6.0909
    8.250    5.9154
    8.385    5.7574
    8.520    7.1090
    8.655    5.6872
    8.790    5.1431
    8.925    5.8101
    9.060    5.5819
    9.195    5.5468
    9.330    8.0393
    9.465    5.7223
    9.600    5.2835
    9.735    5.4941
    9.870    5.7048
   10.005    6.9159
   10.140    6.9510
   10.275    5.6345
   10.410    5.8803
   10.545    5.4941
   10.680    6.2489
   10.815    7.5654
   10.950    5.7048
   11.085    5.7223
   11.220    6.2138
   11.355    6.1260
   11.490    6.0734
   11.625    5.3712
   11.760    5.6345
   11.895    5.2835
   12.030    5.6872
   12.165    5.1431
   12.300    5.2835
   12.435    5.6521
   12.570    5.1606
   12.705    5.9154
   12.840    5.5819
   12.975    5.3010
   13.110    5.0904
   13.245    5.9154
   13.380    5.7399
   13.515    5.2484
   13.650    5.3186
   13.785    7.5654
   13.920    5.4239
   14.055    5.3010
   14.190    5.8978
   14.325    5.2484
   14.460    6.2313
   14.595    5.8101
   14.730    5.5994
   14.865    5.5643
   15.000    4.9149
   15.135    5.4064
   15.270    5.2659
   15.405    5.1957
   15.540    4.5814
   15.675    4.8447
   15.810    5.6872
   15.945    4.8095
   16.080    5.2484
   16.215    5.9681
   16.350    5.1606
   16.485    5.3186
   16.620    4.9500
   16.755    5.4239
   16.890    5.1255
   17.025    5.0728
   17.160    5.4415
   17.295    5.3361
   17.430    4.9324
   17.565    5.2484
   17.700    5.0904
   17.835    5.1431
   17.970    5.1431
   18.105    5.0553
   18.240    4.9500
   18.375    5.1431
   18.510    5.3888
   18.645    5.1957
   18.780    4.8798
   18.915    5.1255
   19.050    5.0553
   19.185    4.8095
   19.320    5.2308
   19.455    5.1255
   19.590    4.6340
   19.725    5.0377
   19.860    4.6516
   19.995    5.5468
   20.130    4.8798
   20.265    4.8798
   20.400    4.7218
   20.535    4.6340
   20.670    4.8271
   20.805    4.6340
   20.940    4.9500
   21.075    4.7042
   21.210    5.0202
   21.345    4.7920
   21.480    4.9324
   21.615    4.5463
   21.750    5.0026
   21.885    4.8271
   22.020    5.0904
   22.155    4.9149
   22.290    4.5463
   22.425    5.1080
   22.560    5.0377
   22.695    4.7920
   22.830    4.3005
   22.965    4.7920
   23.100    4.0372
   23.235    4.4058
   23.370    4.7920
   23.505    4.4936
   23.640    4.8271
   23.775    4.3532
   23.910    4.4058
   24.045    4.3356
   24.180    4.1952
   24.315    4.0723
   24.450    4.3532
   24.585    4.4058
   24.720    3.7739
   24.855    4.0548
   24.990    3.9494
   25.125    3.7564
   25.260    4.7744
   25.395    4.1074
   25.530    3.9670
   25.665    3.5984
   25.800    3.8968
   25.935    3.9846
   26.070    3.8090
   26.205    3.5808
   26.340    3.7915
   26.475    4.1425
   26.610    3.9319
   26.745    3.6159
   26.880    3.5633
   27.015    3.4580
   27.150    3.4931
   27.285    3.8968
   27.420    3.4053
   27.555    3.8441
   27.690    3.8266
   27.825    3.4931
   27.960    3.5808
   28.095    3.4404
   28.230    3.5808
   28.365    3.3877
   28.500    3.3000
   28.635    4.1776
   28.770    3.5633
   28.905    3.5106
   29.040    3.6510
   29.175    3.8266
   29.310    3.4931
   29.445    3.0542
   29.580    3.0016
   29.715    3.3351
   29.850    3.2298
   29.985    3.5633
   30.120    3.3351
   30.255    3.2649
   30.390    3.1947
   30.525    2.9840
   30.660    2.9314
   30.795    2.9314
   30.930    3.2473
   31.065    3.2122
   31.200    2.8963
   31.335    3.1069
   31.470    2.9665
   31.605    2.8260
   31.740    2.7383
   31.875    3.0718
   32.010    2.8787
   32.145    3.3526
   32.280    2.7909
   32.415    2.7558
   32.550    2.8612
   32.685    2.3697
   32.820    2.7383
   32.955    2.8963
   33.090    2.5628
   33.225    2.9314
   33.360    2.8436
   33.495    2.6681
   33.630    2.5101
   33.765    2.9489
   33.900    2.5628
   34.035    3.0191
   34.170    2.5628
   34.305    2.7032
   34.440    2.8787
   34.575    2.6856
   34.710    2.6681
   34.845    2.9665
   34.980    2.6330
   35.115    2.5276
   35.250    2.5276
   35.385    2.8787
   35.520    2.7383
   35.655    3.0191
   35.790    2.4399
   35.925    2.7734
   36.060    2.6154
   36.195    2.8260
   36.330    2.4048
   36.465    2.6154
   36.600    2.5803
   36.735    2.5628
   36.870    2.6505
   37.005    2.6330
   37.140    2.9138
   37.275    2.6154
   37.410    2.5101
   37.545    2.7032
   37.680    2.9665
   37.815    2.4750
   37.950    2.7734
   38.085    2.9138
   38.220    2.5628
   38.355    2.9138
   38.490    2.6330
   38.625    2.5452
   38.760    2.4399
   38.895    2.3697
   39.030    2.9489
   39.165    2.4750
   39.300    2.5979
   39.435    2.2995
   39.570    2.4574
   39.705    2.3346
   39.840    2.6154
   39.975    2.4399
   39.990    2.3872