File: data/MOCOF-1/PXRD/PXRD_KE-076_Cu-Ka1_capillary-1mm_5s-deg.xyd
    1.500   14.2391
    1.635   14.3655
    1.770   14.0600
    1.905   14.1759
    2.040   15.3028
    2.175   16.6509
    2.310   18.1148
    2.445   20.9163
    2.580   23.9494
    2.715   28.5624
    2.850   34.5866
    2.985   44.8447
    3.120   60.6846
    3.255   86.8036
    3.390  142.4013
    3.525  102.9384
    3.660   67.8146
    3.795   93.2070
    3.930   79.1996
    4.065   26.9932
    4.200   13.6493
    4.335    9.5945
    4.470    7.5935
    4.605    6.9300
    4.740    6.3086
    4.875    6.4034
    5.010    6.3402
    5.145    6.3928
    5.280    6.3928
    5.415    5.9926
    5.550    5.6135
    5.685    5.7188
    5.820    5.9716
    5.955    5.6556
    6.090    5.8452
    6.225    6.1190
    6.360    6.7825
    6.495    8.1938
    6.630   10.5424
    6.765   14.6182
    6.900   26.3402
    7.035   16.0295
    7.170    8.4781
    7.305    8.2359
    7.440    9.0153
    7.575   13.0174
    7.710   19.0732
    7.845   19.4839
    7.980   12.1116
    8.115    7.4355
    8.250    6.2033
    8.385    5.8768
    8.520    5.1606
    8.655    4.8973
    8.790    5.0026
    8.925    4.7077
    9.060    4.8552
    9.195    4.7920
    9.330    4.8131
    9.465    4.8552
    9.600    5.0553
    9.735    4.6340
    9.870    4.9184
   10.005    4.9710
   10.140    4.8552
   10.275    4.8973
   10.410    5.4660
   10.545    4.9500
   10.680    4.8236
   10.815    4.5076
   10.950    4.8131
   11.085    5.0869
   11.220    5.3923
   11.355    5.5819
   11.490    5.3607
   11.625    6.4139
   11.760    6.6351
   11.895    5.8347
   12.030    5.1395
   12.165    5.3502
   12.300    5.3186
   12.435    5.3186
   12.570    4.9289
   12.705    5.0132
   12.840    5.3291
   12.975    5.1501
   13.110    4.9921
   13.245    5.1817
   13.380    5.0658
   13.515    5.0237
   13.650    5.1606
   13.785    4.8868
   13.920    4.9710
   14.055    4.6656
   14.190    4.8763
   14.325    4.4971
   14.460    4.8025
   14.595    4.8868
   14.730    4.8341
   14.865    5.2449
   15.000    5.0764
   15.135    5.1606
   15.270    5.0658
   15.405    5.3712
   15.540    5.2765
   15.675    5.2870
   15.810    4.7499
   15.945    4.9605
   16.080    4.6656
   16.215    4.6867
   16.350    4.7183
   16.485    4.8447
   16.620    5.4450
   16.755    4.7815
   16.890    5.0132
   17.025    4.6340
   17.160    4.9605
   17.295    4.9184
   17.430    4.8552
   17.565    5.2343
   17.700    5.3923
   17.835    5.4450
   17.970    4.9816
   18.105    4.9921
   18.240    4.9500
   18.375    4.8131
   18.510    5.2027
   18.645    4.8447
   18.780    5.0553
   18.915    4.9289
   19.050    5.3818
   19.185    5.0974
   19.320    5.5292
   19.455    5.0974
   19.590    5.4344
   19.725    5.5187
   19.860    5.3712
   19.995    5.7504
   20.130    5.7925
   20.265    5.6977
   20.400    5.8452
   20.535    5.8031
   20.670    5.5714
   20.805    5.6029
   20.940    6.0769
   21.075    6.3296
   21.210    6.0874
   21.345    6.1190
   21.480    5.3818
   21.615    6.0979
   21.750    5.6029
   21.885    5.2449
   22.020    5.8768
   22.155    5.8031
   22.290    5.9400
   22.425    6.0664
   22.560    6.0032
   22.695    6.2454
   22.830    6.2349
   22.965    6.4244
   23.100    6.1611
   23.235    5.4660
   23.370    5.4028
   23.505    5.5819
   23.640    5.4028
   23.775    5.3818
   23.910    5.4555
   24.045    5.3397
   24.180    5.5819
   24.315    5.2975
   24.450    5.7293
   24.585    5.5398
   24.720    5.3081
   24.855    5.5714
   24.990    5.3502
   25.125    5.1080
   25.260    5.2975
   25.395    5.3923
   25.530    5.0342
   25.665    4.6972
   25.800    5.0237
   25.935    4.6130
   26.070    4.8131
   26.205    5.0132
   26.340    4.9394
   26.475    5.1711
   26.610    5.0974
   26.745    5.1290
   26.880    4.8657
   27.015    4.9921
   27.150    5.0132
   27.285    4.8868
   27.420    4.9710
   27.555    4.7288
   27.690    4.7604
   27.825    4.7183
   27.960    4.7499
   28.095    4.7183
   28.230    4.6551
   28.365    4.7709
   28.500    4.2865
   28.635    4.3918
   28.770    4.6656
   28.905    4.6972
   29.040    4.4339
   29.175    4.4655
   29.310    4.4971
   29.445    4.6551
   29.580    4.6867
   29.715    4.6130
   29.850    4.4550
   29.985    4.3497
   30.120    4.2443
   30.255    4.3707
   30.390    4.3497
   30.525    4.3602
   30.660    4.1917
   30.795    4.5708
   30.930    4.1496
   31.065    4.3813
   31.200    4.3181
   31.335    4.1074
   31.470    4.6867
   31.605    4.2549
   31.740    4.2549
   31.875    4.3075
   32.010    4.2970
   32.145    4.0021
   32.280    4.2865
   32.415    4.2970
   32.550    3.9284
   32.685    3.7283
   32.820    3.9705
   32.955    3.9916
   33.090    3.9389
   33.225    3.9916
   33.360    4.0758
   33.495    3.5492
   33.630    4.1180
   33.765    3.8020
   33.900    3.6230
   34.035    3.7809
   34.170    3.7809
   34.305    3.8757
   34.440    3.9389
   34.575    3.9179
   34.710    4.0021
   34.845    3.6862
   34.980    3.5703
   35.115    3.8020
   35.250    3.5598
   35.385    3.7283
   35.520    3.4966
   35.655    3.5914
   35.790    3.4439
   35.925    3.5492
   36.060    3.5176
   36.195    3.4439
   36.330    3.5176
   36.465    3.5387
   36.600    3.6756
   36.735    3.6230
   36.870    3.3386
   37.005    3.4123
   37.140    3.4755
   37.275    3.6124
   37.410    3.5703
   37.545    3.4229
   37.680    3.5282
   37.815    3.4966
   37.950    3.3702
   38.085    3.4650
   38.220    3.4334
   38.355    3.2333
   38.490    3.3807
   38.625    3.3913
   38.760    3.2333
   38.895    3.5387
   39.030    3.2017
   39.165    3.5387
   39.300    3.1701
   39.435    3.2859
   39.570    3.2859
   39.705    3.1596
   39.840    3.2543
   39.975    3.3702
   39.990    3.2754