File: data/MOCOF-1/PXRD/PXRD_KE-089_Cu-Ka1_capillary-1mm_5s-deg.xyd
    1.500   24.4550
    1.635   22.7909
    1.770   20.7478
    1.905   19.2101
    2.040   17.6725
    2.175   16.3876
    2.310   16.1243
    2.445   15.5134
    2.580   15.5977
    2.715   16.0927
    2.850   15.4186
    2.985   17.2091
    3.120   18.6519
    3.255   22.1169
    3.390   27.6777
    3.525   25.5292
    3.660   19.9263
    3.795   23.4755
    3.930   22.4961
    4.065   14.5761
    4.200   11.5850
    4.335   10.3318
    4.470    9.3944
    4.605    8.9205
    4.740    8.6993
    4.875    8.3518
    5.010    8.2780
    5.145    8.2464
    5.280    8.9837
    5.415    9.4681
    5.550    8.5729
    5.685    7.1406
    5.820    7.6777
    5.955    7.2038
    6.090    7.0353
    6.225    6.8141
    6.360    7.2880
    6.495    7.8884
    6.630    7.5513
    6.765    8.6361
    6.900    8.8046
    7.035    7.9410
    7.170    7.7199
    7.305    7.7304
    7.440    7.6883
    7.575    7.9831
    7.710    8.3518
    7.845    8.3202
    7.980    8.0674
    8.115    7.9937
    8.250    7.8146
    8.385    7.7199
    8.520    8.0358
    8.655    7.7514
    8.790    7.6145
    8.925    7.6672
    9.060    7.0774
    9.195    7.1933
    9.330    7.6988
    9.465    7.7725
    9.600    7.7093
    9.735    7.3934
    9.870    7.3196
   10.005    7.5513
   10.140    7.5408
   10.275    7.4882
   10.410    7.2880
   10.545    7.1511
   10.680    6.8036
   10.815    6.8352
   10.950    6.9194
   11.085    6.8036
   11.220    7.0458
   11.355    7.4355
   11.490    6.9932
   11.625    6.9405
   11.760    7.1301
   11.895    6.8036
   12.030    6.7615
   12.165    6.7930
   12.300    6.6983
   12.435    6.3718
   12.570    6.5192
   12.705    6.6983
   12.840    6.4876
   12.975    6.3612
   13.110    6.7299
   13.245    6.5929
   13.380    6.5613
   13.515    6.4771
   13.650    6.1085
   13.785    6.8773
   13.920    6.3296
   14.055    6.2033
   14.190    6.3402
   14.325    6.5087
   14.460    6.5719
   14.595    6.5403
   14.730    6.2349
   14.865    6.4771
   15.000    6.4560
   15.135    6.8984
   15.270    6.3402
   15.405    6.6772
   15.540    6.6035
   15.675    6.4034
   15.810    6.1190
   15.945    6.4982
   16.080    6.4034
   16.215    6.6772
   16.350    6.6456
   16.485    6.4666
   16.620    6.4666
   16.755    6.3823
   16.890    6.7615
   17.025    6.6351
   17.160    6.6245
   17.295    6.4771
   17.430    6.8562
   17.565    6.6351
   17.700    6.2770
   17.835    6.4876
   17.970    6.5087
   18.105    6.8668
   18.240    6.5929
   18.375    6.6667
   18.510    6.8773
   18.645    6.4771
   18.780    6.8668
   18.915    7.0669
   19.050    7.1511
   19.185    6.6561
   19.320    6.5613
   19.455    6.9826
   19.590    6.6772
   19.725    6.9616
   19.860    6.8878
   19.995    6.3718
   20.130    6.8141
   20.265    6.9616
   20.400    6.9510
   20.535    6.9089
   20.670    6.9826
   20.805    7.4355
   20.940    6.6667
   21.075    7.1827
   21.210    6.8668
   21.345    7.1722
   21.480    6.9932
   21.615    6.7088
   21.750    6.9510
   21.885    6.9826
   22.020    6.6667
   22.155    6.1927
   22.290    6.9405
   22.425    7.2565
   22.560    7.4144
   22.695    7.0353
   22.830    6.9510
   22.965    6.8562
   23.100    6.8984
   23.235    6.7088
   23.370    6.3823
   23.505    6.8773
   23.640    6.8141
   23.775    6.7404
   23.910    6.6456
   24.045    6.5719
   24.180    6.8036
   24.315    6.4350
   24.450    6.8457
   24.585    7.0037
   24.720    6.3507
   24.855    6.6561
   24.990    6.2033
   25.125    6.2770
   25.260    6.5613
   25.395    6.5087
   25.530    6.2665
   25.665    6.7404
   25.800    6.4455
   25.935    6.4771
   26.070    6.7720
   26.205    5.9400
   26.340    6.3086
   26.475    6.2033
   26.610    6.0348
   26.745    6.1927
   26.880    6.0664
   27.015    6.1295
   27.150    5.9294
   27.285    6.1295
   27.420    6.1506
   27.555    6.2875
   27.690    5.8768
   27.825    5.6556
   27.960    6.1401
   28.095    6.1822
   28.230    5.6977
   28.365    5.6661
   28.500    5.8978
   28.635    5.8557
   28.770    5.6872
   28.905    5.8031
   29.040    6.0558
   29.175    6.0242
   29.310    5.8452
   29.445    5.9189
   29.580    5.5187
   29.715    5.6767
   29.850    5.6872
   29.985    5.6135
   30.120    5.4344
   30.255    5.7188
   30.390    5.3712
   30.525    5.4028
   30.660    5.5819
   30.795    5.5608
   30.930    5.9189
   31.065    5.3502
   31.200    5.2659
   31.335    5.1185
   31.470    5.6029
   31.605    5.4028
   31.740    5.5082
   31.875    5.6872
   32.010    6.0032
   32.145    5.5714
   32.280    5.3081
   32.415    5.2343
   32.550    5.2449
   32.685    5.3502
   32.820    5.2659
   32.955    4.9394
   33.090    5.3712
   33.225    5.2133
   33.360    5.5714
   33.495    5.1711
   33.630    5.2343
   33.765    5.3397
   33.900    5.2027
   34.035    5.1817
   34.170    4.9710
   34.305    4.9500
   34.440    4.8657
   34.575    4.7393
   34.710    4.8552
   34.845    5.0342
   34.980    4.8236
   35.115    4.9710
   35.250    4.8236
   35.385    4.9921
   35.520    4.9710
   35.655    4.9605
   35.790    4.7499
   35.925    4.6445
   36.060    4.9816
   36.195    4.6445
   36.330    4.9605
   36.465    4.6445
   36.600    4.8236
   36.735    4.7815
   36.870    4.3391
   37.005    4.7499
   37.140    4.6340
   37.275    4.4866
   37.410    4.7393
   37.545    4.7077
   37.680    4.3707
   37.815    4.7499
   37.950    4.6551
   38.085    4.5814
   38.220    4.7709
   38.355    4.5287
   38.490    4.6445
   38.625    4.7393
   38.760    4.6972
   38.895    4.7815
   39.030    4.7393
   39.165    4.6656
   39.300    4.4234
   39.435    4.4550
   39.570    4.6761
   39.705    4.6972
   39.840    4.3918
   39.975    4.3918
   39.990    4.1390