File: data/MOCOF-1/PXRD/PXRD_KE-132-2_Cu-Ka1_film-3mm_5s-deg.xyd
    1.500   15.3133
    1.635   13.7125
    1.770   11.7641
    1.905   10.4581
    2.040   10.3318
    2.175    8.8678
    2.310    9.0469
    2.445    8.2780
    2.580    8.3939
    2.715    8.6888
    2.850    9.2364
    2.985   10.1422
    3.120   13.0806
    3.255   18.5466
    3.390   30.0895
    3.525   26.0769
    3.660   13.4071
    3.795   13.9652
    3.930   14.9658
    4.065   16.0927
    4.200   14.9658
    4.335   10.4897
    4.470    8.0990
    4.605    6.6877
    4.740    6.6245
    4.875    6.3086
    5.010    6.5824
    5.145    6.4982
    5.280    7.0248
    5.415    7.2880
    5.550    7.2775
    5.685    6.7509
    5.820    6.6140
    5.955    6.1401
    6.090    5.6556
    6.225    5.8452
    6.360    5.4239
    6.495    5.5714
    6.630    5.1817
    6.765    5.7609
    6.900    7.3091
    7.035    6.2454
    7.170    5.1080
    7.305    4.4760
    7.440    4.6235
    7.575    4.4655
    7.710    4.0758
    7.845    4.4339
    7.980    4.5814
    8.115    4.4550
    8.250    4.6340
    8.385    4.2865
    8.520    4.3286
    8.655    3.9073
    8.790    3.6124
    8.925    3.8757
    9.060    3.5282
    9.195    3.3175
    9.330    3.6230
    9.465    3.6230
    9.600    3.2227
    9.735    3.2859
    9.870    3.4755
   10.005    3.3913
   10.140    3.5703
   10.275    3.5176
   10.410    3.3070
   10.545    3.6019
   10.680    3.4650
   10.815    3.7915
   10.950    3.4650
   11.085    3.5808
   11.220    3.5703
   11.355    3.7704
   11.490    3.4018
   11.625    3.6967
   11.760    3.5387
   11.895    3.1701
   12.030    3.3386
   12.165    3.6124
   12.300    3.5914
   12.435    3.6546
   12.570    3.2965
   12.705    3.6651
   12.840    3.7493
   12.975    3.5176
   13.110    3.5176
   13.245    3.2543
   13.380    3.1912
   13.515    3.2965
   13.650    3.5598
   13.785    3.5914
   13.920    3.5282
   14.055    3.6651
   14.190    3.6230
   14.325    3.6756
   14.460    3.5176
   14.595    3.5387
   14.730    3.5071
   14.865    3.6440
   15.000    3.1280
   15.135    3.2965
   15.270    3.3807
   15.405    3.5387
   15.540    3.2859
   15.675    3.3702
   15.810    3.6230
   15.945    3.6124
   16.080    3.0121
   16.215    3.2859
   16.350    3.1596
   16.485    3.3913
   16.620    3.0858
   16.755    3.2649
   16.890    3.2438
   17.025    3.1069
   17.160    3.3491
   17.295    3.2017
   17.430    2.8752
   17.565    3.1596
   17.700    3.1174
   17.835    3.3386
   17.970    3.2017
   18.105    3.1385
   18.240    3.4544
   18.375    3.3491
   18.510    3.2333
   18.645    3.4439
   18.780    3.1280
   18.915    3.1806
   19.050    3.0542
   19.185    3.3070
   19.320    3.2333
   19.455    3.0648
   19.590    3.1385
   19.725    3.0964
   19.860    3.0648
   19.995    3.0753
   20.130    2.9805
   20.265    3.4018
   20.400    2.8015
   20.535    2.9279
   20.670    3.1490
   20.805    2.8857
   20.940    2.9910
   21.075    3.0437
   21.210    3.1385
   21.345    2.8120
   21.480    2.9279
   21.615    2.9595
   21.750    2.6119
   21.885    2.8647
   22.020    2.9173
   22.155    2.8541
   22.290    2.6224
   22.425    2.8331
   22.560    2.8120
   22.695    2.6224
   22.830    2.7278
   22.965    2.7067
   23.100    2.6540
   23.235    2.5592
   23.370    2.5276
   23.505    2.5803
   23.640    2.5382
   23.775    2.6330
   23.910    2.6435
   24.045    2.8436
   24.180    2.4329
   24.315    2.1906
   24.450    2.7383
   24.585    2.3591
   24.720    2.2854
   24.855    2.3486
   24.990    2.5276
   25.125    2.4855
   25.260    2.2854
   25.395    2.4434
   25.530    2.3381
   25.665    2.2328
   25.800    2.3275
   25.935    2.2328
   26.070    2.2433
   26.205    2.3381
   26.340    2.3907
   26.475    2.3591
   26.610    2.1906
   26.745    2.0853
   26.880    2.3381
   27.015    2.0537
   27.150    2.1590
   27.285    2.1485
   27.420    1.9168
   27.555    2.2538
   27.690    1.9484
   27.825    1.9695
   27.960    2.0011
   28.095    2.0432
   28.230    2.0958
   28.365    2.1696
   28.500    2.2117
   28.635    2.0537
   28.770    2.2959
   28.905    1.8641
   29.040    2.1274
   29.175    2.1485
   29.310    1.8852
   29.445    1.8852
   29.580    1.9695
   29.715    1.6640
   29.850    1.8325
   29.985    1.7167
   30.120    1.7904
   30.255    1.6640
   30.390    1.8220
   30.525    1.6219
   30.660    1.6430
   30.795    1.6008
   30.930    1.5166
   31.065    1.6851
   31.200    1.8431
   31.335    1.7483
   31.470    1.6851
   31.605    1.7588
   31.740    1.7694
   31.875    1.6851
   32.010    1.6430
   32.145    1.5271
   32.280    1.6219
   32.415    1.7272
   32.550    1.5798
   32.685    1.4639
   32.820    1.4323
   32.955    1.4323
   33.090    1.5377
   33.225    1.4323
   33.360    1.4534
   33.495    1.3902
   33.630    1.6008
   33.765    1.3797
   33.900    1.5903
   34.035    1.5482
   34.170    1.6114
   34.305    1.4218
   34.440    1.4113
   34.575    1.4323
   34.710    1.4955
   34.845    1.4007
   34.980    1.4007
   35.115    1.3375
   35.250    1.6430
   35.385    1.2533
   35.520    1.4323
   35.655    1.4113
   35.790    1.3902
   35.925    1.3902
   36.060    1.3375
   36.195    1.1901
   36.330    1.4113
   36.465    1.2849
   36.600    1.4429
   36.735    1.5798
   36.870    1.2744
   37.005    1.4850
   37.140    1.4218
   37.275    1.3797
   37.410    1.2849
   37.545    1.3586
   37.680    1.2954
   37.815    1.4323
   37.950    1.4429
   38.085    1.3270
   38.220    1.1585
   38.355    1.4113
   38.490    1.2744
   38.625    1.4534
   38.760    1.4639
   38.895    1.3902
   39.030    1.4218
   39.165    1.4113
   39.300    1.2006
   39.435    1.2954
   39.570    1.3165
   39.705    1.2006
   39.840    1.4639
   39.975    1.2428
   39.990    1.2322