File: data/MOCOF-1/PXRD/PXRD_KE-079_Cu-Ka1_capillary-1mm_5s-deg.xyd
    1.500   12.0906
    1.635   11.8483
    1.770   12.0063
    1.905   11.8905
    2.040   13.0068
    2.175   14.2180
    2.310   16.7562
    2.445   20.9689
    2.580   29.5103
    2.715   46.2138
    2.850   37.1143
    2.985   16.2296
    3.120    9.3944
    3.255    6.4139
    3.390    5.4766
    3.525    4.8341
    3.660    4.3075
    3.795    3.8547
    3.930    3.6546
    4.065    3.1806
    4.200    3.0753
    4.335    3.1069
    4.470    3.6019
    4.605    3.9179
    4.740    6.0137
    4.875    5.9716
    5.010    5.4344
    5.145    3.0437
    5.280    2.6224
    5.415    2.9384
    5.550    4.3286
    5.685    3.1806
    5.820    2.6962
    5.955    2.2012
    6.090    1.7062
    6.225    1.6008
    6.360    1.7378
    6.495    1.8747
    6.630    1.8747
    6.765    1.6640
    6.900    1.8431
    7.035    1.8115
    7.170    2.1801
    7.305    2.6856
    7.440    2.7593
    7.575    2.7172
    7.710    2.3486
    7.845    1.9695
    7.980    1.8852
    8.115    1.6114
    8.250    1.9168
    8.385    1.8115
    8.520    1.6746
    8.655    1.6956
    8.790    1.6114
    8.925    1.3165
    9.060    1.4534
    9.195    1.6956
    9.330    1.6430
    9.465    1.5166
    9.600    1.6114
    9.735    1.6535
    9.870    1.8431
   10.005    1.7062
   10.140    1.8641
   10.275    1.5798
   10.410    1.6851
   10.545    1.5061
   10.680    1.6640
   10.815    1.5798
   10.950    1.4955
   11.085    1.8325
   11.220    1.5377
   11.355    1.6114
   11.490    1.6324
   11.625    1.4955
   11.760    1.5903
   11.895    1.8957
   12.030    1.6746
   12.165    1.6535
   12.300    1.9379
   12.435    1.8431
   12.570    1.7904
   12.705    1.6851
   12.840    1.8115
   12.975    1.7904
   13.110    1.6640
   13.245    1.9800
   13.380    2.0116
   13.515    1.9484
   13.650    1.6851
   13.785    1.8325
   13.920    2.0642
   14.055    2.1380
   14.190    1.8641
   14.325    1.8536
   14.460    2.1906
   14.595    1.8852
   14.730    2.0958
   14.865    2.1274
   15.000    2.1590
   15.135    2.1906
   15.270    2.0958
   15.405    2.1274
   15.540    2.3065
   15.675    2.1485
   15.810    2.3591
   15.945    2.4223
   16.080    2.5487
   16.215    2.7172
   16.350    2.5171
   16.485    2.5066
   16.620    2.7067
   16.755    2.7488
   16.890    2.7593
   17.025    2.5803
   17.160    2.7699
   17.295    2.8541
   17.430    2.5908
   17.565    2.8225
   17.700    2.6330
   17.835    2.9489
   17.970    2.8647
   18.105    2.9910
   18.240    2.6540
   18.375    2.8647
   18.510    2.9384
   18.645    2.8331
   18.780    2.9489
   18.915    3.0964
   19.050    3.2122
   19.185    2.8436
   19.320    3.2649
   19.455    3.0858
   19.590    2.9910
   19.725    3.1806
   19.860    3.2965
   19.995    3.1280
   20.130    3.2754
   20.265    3.2859
   20.400    3.0121
   20.535    3.0016
   20.670    3.2754
   20.805    3.0858
   20.940    3.3491
   21.075    3.0226
   21.210    2.8436
   21.345    3.3281
   21.480    3.4018
   21.615    3.3281
   21.750    3.1280
   21.885    3.1490
   22.020    3.0332
   22.155    3.1490
   22.290    2.8436
   22.425    3.1912
   22.560    3.5176
   22.695    3.4650
   22.830    3.2333
   22.965    2.8331
   23.100    3.2859
   23.235    3.2754
   23.370    3.1701
   23.505    3.2333
   23.640    3.2859
   23.775    3.1174
   23.910    2.7278
   24.045    3.1806
   24.180    2.8541
   24.315    3.0648
   24.450    2.8225
   24.585    3.1490
   24.720    2.8015
   24.855    3.0226
   24.990    2.9384
   25.125    2.8752
   25.260    3.0226
   25.395    2.8331
   25.530    3.2859
   25.665    2.8963
   25.800    2.8857
   25.935    2.6330
   26.070    2.6856
   26.205    2.7593
   26.340    2.7067
   26.475    2.4223
   26.610    2.6014
   26.745    2.3486
   26.880    2.8752
   27.015    2.4855
   27.150    2.6435
   27.285    2.6014
   27.420    2.6014
   27.555    2.4329
   27.690    2.3275
   27.825    2.5908
   27.960    2.2643
   28.095    2.2222
   28.230    2.5487
   28.365    2.3591
   28.500    2.2012
   28.635    2.3802
   28.770    2.1696
   28.905    2.5487
   29.040    2.2643
   29.175    2.3802
   29.310    2.0748
   29.445    2.2117
   29.580    2.1485
   29.715    2.2222
   29.850    2.1696
   29.985    2.4434
   30.120    2.0642
   30.255    2.1906
   30.390    2.1064
   30.525    2.1801
   30.660    1.8852
   30.795    2.0326
   30.930    1.8957
   31.065    1.9273
   31.200    2.0326
   31.335    2.1169
   31.470    1.8641
   31.605    1.8009
   31.740    2.3802
   31.875    2.4961
   32.010    1.7799
   32.145    1.8641
   32.280    1.8325
   32.415    1.7904
   32.550    1.6640
   32.685    1.7799
   32.820    1.6324
   32.955    1.9063
   33.090    1.5271
   33.225    1.6008
   33.360    1.6430
   33.495    1.7694
   33.630    1.5271
   33.765    1.5271
   33.900    1.7167
   34.035    1.4745
   34.170    1.3797
   34.305    1.3586
   34.440    1.4218
   34.575    1.3691
   34.710    1.6324
   34.845    1.4639
   34.980    1.5377
   35.115    1.3165
   35.250    1.1796
   35.385    1.3691
   35.520    1.1901
   35.655    1.4007
   35.790    1.2533
   35.925    1.2112
   36.060    1.2217
   36.195    1.1164
   36.330    1.1480
   36.465    1.1585
   36.600    1.2006
   36.735    1.2428
   36.870    1.2217
   37.005    1.0005
   37.140    1.0005
   37.275    1.0532
   37.410    1.1901
   37.545    1.1901
   37.680    1.0111
   37.815    1.0321
   37.950    1.0321
   38.085    1.0321
   38.220    1.2428
   38.355    1.0321
   38.490    1.0216
   38.625    1.2428
   38.760    1.0742
   38.895    1.0427
   39.030    0.9268
   39.165    1.0953
   39.300    1.0427
   39.435    1.1164
   39.570    1.0005
   39.705    1.0637
   39.840    1.0005
   39.975    0.9163
   39.990    1.1480