File: data/MOCOF-1/PXRD/PXRD_KE-281_Cu-Ka1_film-3mm_3s-deg.xyd
    1.500   18.0621
    1.635   16.2366
    1.770   14.0425
    1.905   11.7606
    2.040   11.8132
    2.175   10.5143
    2.310    9.5489
    2.445    9.7946
    2.580    9.3382
    2.715    8.8994
    2.850    9.0925
    2.985    8.6712
    3.120    7.7058
    3.255    8.3728
    3.390    8.0042
    3.525    7.8111
    3.660    8.0920
    3.795    7.8638
    3.930    7.9691
    4.065    8.4957
    4.200    7.8287
    4.335    8.1095
    4.470    8.7941
    4.605    7.3547
    4.740    7.7760
    4.875    8.0744
    5.010    8.6010
    5.145    9.4436
    5.280   10.0930
    5.415   10.8829
    5.550   10.6021
    5.685    9.4787
    5.820    9.2680
    5.955    8.2675
    6.090    8.1446
    6.225    7.6180
    6.360    7.7936
    6.495    6.9159
    6.630    6.9159
    6.765    6.8984
    6.900    6.3542
    7.035    6.6351
    7.170    6.9510
    7.305    6.2313
    7.440    6.1962
    7.575    5.7925
    7.710    6.0734
    7.845    5.1606
    7.980    5.8452
    8.115    5.2484
    8.250    5.6872
    8.385    5.1431
    8.520    5.4415
    8.655    5.0553
    8.790    4.5989
    8.925    4.8973
    9.060    5.0377
    9.195    5.2484
    9.330    4.8271
    9.465    4.4409
    9.600    4.7744
    9.735    5.1431
    9.870    5.0202
   10.005    4.6165
   10.140    4.8447
   10.275    5.2133
   10.410    5.0728
   10.545    4.6691
   10.680    4.9851
   10.815    5.4415
   10.950    5.3888
   11.085    5.2308
   11.220    5.4415
   11.355    5.0553
   11.490    5.1957
   11.625    5.9856
   11.760    5.2484
   11.895    5.2308
   12.030    5.4415
   12.165    4.9149
   12.300    4.8095
   12.435    5.0904
   12.570    4.5638
   12.705    4.9500
   12.840    4.8973
   12.975    4.5287
   13.110    4.6165
   13.245    4.9851
   13.380    4.8798
   13.515    5.2835
   13.650    4.5814
   13.785    5.3186
   13.920    4.5111
   14.055    5.1957
   14.190    4.8622
   14.325    5.4941
   14.460    5.1957
   14.595    5.1255
   14.730    5.6697
   14.865    5.1431
   15.000    4.6165
   15.135    4.8798
   15.270    4.5287
   15.405    4.9149
   15.540    4.7393
   15.675    5.0377
   15.810    4.8447
   15.945    4.7042
   16.080    4.6340
   16.215    4.5989
   16.350    4.5989
   16.485    4.7218
   16.620    5.0377
   16.755    4.6516
   16.890    4.9851
   17.025    4.6691
   17.160    4.5111
   17.295    4.6165
   17.430    4.6516
   17.565    4.6867
   17.700    4.4760
   17.835    4.8447
   17.970    4.1425
   18.105    5.0728
   18.240    4.5814
   18.375    4.4058
   18.510    4.7218
   18.645    4.3181
   18.780    4.3181
   18.915    4.4058
   19.050    4.9500
   19.185    4.3356
   19.320    4.7920
   19.455    4.3356
   19.590    4.6691
   19.725    4.3181
   19.860    4.0899
   19.995    4.1952
   20.130    4.1776
   20.265    4.3356
   20.400    4.3005
   20.535    4.0899
   20.670    4.6691
   20.805    4.1074
   20.940    4.1250
   21.075    4.1250
   21.210    3.8266
   21.345    4.1776
   21.480    3.8617
   21.615    4.2127
   21.750    3.6686
   21.885    4.0899
   22.020    4.1425
   22.155    4.3005
   22.290    3.9846
   22.425    3.8617
   22.560    4.0548
   22.695    3.8441
   22.830    3.8441
   22.965    3.4931
   23.100    3.6159
   23.235    3.5808
   23.370    3.7739
   23.505    3.5282
   23.640    3.7037
   23.775    3.5106
   23.910    3.6159
   24.045    3.5633
   24.180    3.7388
   24.315    3.3351
   24.450    3.8266
   24.585    3.2824
   24.720    3.4580
   24.855    3.4755
   24.990    3.1771
   25.125    3.4580
   25.260    3.4755
   25.395    3.5984
   25.530    3.5282
   25.665    3.3175
   25.800    3.3526
   25.935    2.9840
   26.070    3.4580
   26.205    3.1245
   26.340    2.8963
   26.475    3.0718
   26.610    3.2649
   26.745    3.1069
   26.880    3.2649
   27.015    2.8260
   27.150    3.1420
   27.285    3.2473
   27.420    2.9314
   27.555    3.0718
   27.690    2.8612
   27.825    3.0893
   27.960    3.0016
   28.095    2.7383
   28.230    2.9138
   28.365    2.6505
   28.500    2.8260
   28.635    2.8963
   28.770    2.9314
   28.905    2.9489
   29.040    2.7909
   29.175    2.8787
   29.310    2.6330
   29.445    2.5979
   29.580    2.7032
   29.715    2.5452
   29.850    2.4048
   29.985    2.5803
   30.120    2.4048
   30.255    2.1064
   30.390    2.2643
   30.525    2.4925
   30.660    2.5628
   30.795    2.1766
   30.930    2.3170
   31.065    2.3521
   31.200    2.4048
   31.335    2.2292
   31.470    2.3521
   31.605    2.3521
   31.740    2.3346
   31.875    2.2468
   32.010    2.3697
   32.145    2.3521
   32.280    2.2643
   32.415    2.2292
   32.550    2.1415
   32.685    2.0362
   32.820    2.0362
   32.955    2.0888
   33.090    1.8431
   33.225    2.0537
   33.360    2.0011
   33.495    1.8782
   33.630    1.5973
   33.765    1.9835
   33.900    1.8080
   34.035    1.7027
   34.170    1.8782
   34.305    1.8782
   34.440    1.8431
   34.575    2.0011
   34.710    2.1590
   34.845    1.9835
   34.980    1.9133
   35.115    1.8080
   35.250    1.8782
   35.385    1.8080
   35.520    2.0186
   35.655    1.9835
   35.790    1.9133
   35.925    2.0011
   36.060    2.0011
   36.195    1.8606
   36.330    2.1415
   36.465    2.0537
   36.600    1.7904
   36.735    1.9133
   36.870    1.7202
   37.005    1.6675
   37.140    1.8255
   37.275    1.6675
   37.410    1.5973
   37.545    1.8255
   37.680    1.4569
   37.815    2.1064
   37.950    1.5622
   38.085    1.9308
   38.220    1.7729
   38.355    1.9659
   38.490    1.6675
   38.625    1.7202
   38.760    1.5973
   38.895    1.7202
   39.030    1.7027
   39.165    1.7904
   39.300    1.7553
   39.435    1.7904
   39.570    1.7553
   39.705    1.7553
   39.840    1.7904
   39.975    1.4920
   39.990    1.6500