File: data/MOCOF-1/PXRD/PXRD_KE-226_Co-Ka1_film-3mm_5s-deg.xyd
    1.500    5.4789
    1.635    4.9652
    1.770    4.6121
    1.905    4.1520
    2.040    3.9486
    2.175    3.2103
    2.310    3.0926
    2.445    2.8464
    2.580    2.7180
    2.715    2.4291
    2.850    2.5040
    2.985    2.4719
    3.120    2.3970
    3.255    2.2258
    3.390    2.1937
    3.525    1.9690
    3.660    2.2900
    3.795    2.3114
    3.930    2.8250
    4.065    4.0877
    4.200    4.6121
    4.335    8.6463
    4.470   24.6014
    4.605    2.4291
    4.740    2.0653
    4.875    1.9369
    5.010    1.8299
    5.145    1.6800
    5.280    1.9369
    5.415    1.7549
    5.550    1.7335
    5.685    1.8513
    5.820    1.8513
    5.955    1.7764
    6.090    2.3435
    6.225    3.3601
    6.360    9.2777
    6.495    2.2365
    6.630    2.0546
    6.765    1.8620
    6.900    1.8513
    7.035    1.7335
    7.170    1.7335
    7.305    1.6265
    7.440    1.4232
    7.575    1.4339
    7.710    1.9690
    7.845    5.1150
    7.980    1.3483
    8.115    1.5623
    8.250    1.3483
    8.385    1.1878
    8.520    1.0059
    8.655    1.1236
    8.790    1.1236
    8.925    1.4446
    9.060    4.1199
    9.195    1.0915
    9.330    1.1022
    9.465    1.0594
    9.600    1.1557
    9.735    0.9524
    9.870    1.0166
   10.005    0.9524
   10.140    1.3804
   10.275    0.9310
   10.410    1.0594
   10.545    0.8347
   10.680    1.0059
   10.815    0.8668
   10.950    1.0701
   11.085    4.0877
   11.220    0.7384
   11.355    0.9524
   11.490    0.8347
   11.625    0.7812
   11.760    0.8775
   11.895    0.9738
   12.030    2.0867
   12.165    0.8882
   12.300    0.9203
   12.435    0.8989
   12.570    1.0594
   12.705    0.9417
   12.840    3.2103
   12.975    0.9203
   13.110    0.8454
   13.245    0.9310
   13.380    1.0166
   13.515    1.2199
   13.650    2.4612
   13.785    0.8240
   13.920    0.8133
   14.055    0.9203
   14.190    0.9417
   14.325    1.1664
   14.460    0.9417
   14.595    0.9631
   14.730    0.8561
   14.865    0.8882
   15.000    1.0594
   15.135    0.8775
   15.270    0.8454
   15.405    0.8133
   15.540    0.8240
   15.675    1.0915
   15.810    0.7919
   15.945    0.9417
   16.080    0.8454
   16.215    0.8668
   16.350    1.2306
   16.485    0.9096
   16.620    0.9203
   16.755    0.8989
   16.890    0.9631
   17.025    0.8668
   17.160    0.9096
   17.295    0.8240
   17.430    0.8668
   17.565    0.9310
   17.700    0.7919
   17.835    0.9417
   17.970    0.7384
   18.105    0.8775
   18.240    0.9203
   18.375    0.8668
   18.510    0.8347
   18.645    0.9524
   18.780    0.9845
   18.915    0.7812
   19.050    0.7812
   19.185    0.8026
   19.320    0.9417
   19.455    0.7277
   19.590    0.8133
   19.725    0.9845
   19.860    1.8834
   19.995    0.6314
   20.130    0.7491
   20.265    0.8668
   20.400    0.9952
   20.535    0.6849
   20.670    0.7919
   20.805    0.9096
   20.940    0.7705
   21.075    0.7705
   21.210    0.6956
   21.345    0.9738
   21.480    0.6849
   21.615    0.7384
   21.750    0.7277
   21.885    0.8668
   22.020    0.7812
   22.155    0.8454
   22.290    0.8240
   22.425    0.7705
   22.560    0.6742
   22.695    0.7919
   22.830    1.0166
   22.965    0.8454
   23.100    0.7812
   23.235    0.7598
   23.370    0.6956
   23.505    0.8133
   23.640    0.6956
   23.775    0.9096
   23.910    0.7384
   24.045    0.6849
   24.180    0.7170
   24.315    0.7170
   24.450    0.5886
   24.585    0.7170
   24.720    0.5886
   24.855    0.6528
   24.990    0.7063
   25.125    0.7598
   25.260    0.6635
   25.395    0.6742
   25.530    0.6635
   25.665    0.6528
   25.800    0.7598
   25.935    0.6421
   26.070    0.7384
   26.205    0.6421
   26.340    0.5993
   26.475    0.6849
   26.610    0.7491
   26.745    0.6956
   26.880    0.5886
   27.015    0.5243
   27.150    0.5457
   27.285    0.5243
   27.420    0.7491
   27.555    0.5029
   27.690    0.5029
   27.825    0.7491
   27.960    0.6635
   28.095    0.5993
   28.230    0.5564
   28.365    0.5993
   28.500    0.5564
   28.635    0.7170
   28.770    0.7063
   28.905    0.6100
   29.040    0.6207
   29.175    0.5886
   29.310    0.4922
   29.445    0.5350
   29.580    0.5457
   29.715    0.6314
   29.850    0.5243
   29.985    0.5243
   30.120    0.8133
   30.255    0.5564
   30.390    0.4708
   30.525    0.5671
   30.660    0.4601
   30.795    0.7277
   30.930    0.6207
   31.065    0.5029
   31.200    0.5029
   31.335    0.4601
   31.470    0.5243
   31.605    0.4387
   31.740    0.4494
   31.875    0.3745
   32.010    0.4494
   32.145    0.5243
   32.280    0.6528
   32.415    0.3959
   32.550    0.5243
   32.685    0.3424
   32.820    0.5671
   32.955    0.4601
   33.090    0.4815
   33.225    0.5564
   33.360    0.3745
   33.495    0.4815
   33.630    0.4815
   33.765    0.6635
   33.900    0.3638
   34.035    0.3638
   34.170    0.5029
   34.305    0.3638
   34.440    0.3638
   34.575    0.4708
   34.710    0.3959
   34.845    0.3424
   34.980    0.2461
   35.115    0.4173
   35.250    0.4922
   35.385    0.2996
   35.520    0.3103
   35.655    0.4601
   35.790    0.4494
   35.925    0.4494
   36.060    0.2996
   36.195    0.4387
   36.330    0.2782
   36.465    0.3317
   36.600    0.3638
   36.735    0.4387
   36.870    0.2782
   37.005    0.2140
   37.140    0.4387
   37.275    0.3852
   37.410    0.2996
   37.545    0.2247
   37.680    0.3852
   37.815    0.2782
   37.950    0.3424
   38.085    0.3638
   38.220    0.3103
   38.355    0.2461
   38.490    0.2675
   38.625    0.2782
   38.760    0.3424
   38.895    0.2568
   39.030    0.3852
   39.165    0.3424
   39.300    0.3424
   39.435    0.3103
   39.570    0.3852
   39.705    0.2354
   39.840    0.3638
   39.975    0.3103
   39.990    0.2033