File: data/MOCOF-1/PXRD/PXRD_KE-282-2_Cu-Ka1_capillary-1mm_3s-deg.xyd
    1.500   21.2217
    1.635   17.6935
    1.770   14.6393
    1.905   13.5861
    2.040   12.1994
    2.175   10.8654
    2.310   10.2861
    2.445   10.2159
    2.580    8.9170
    2.715    8.8994
    2.850    8.5659
    2.985    8.5133
    3.120    8.6010
    3.255    9.7595
    3.390   12.0239
    3.525   14.9728
    3.660   23.5738
    3.795   46.0593
    3.930   24.0477
    4.065    9.4787
    4.200    8.8819
    4.335    7.4250
    4.470    7.3021
    4.605    6.5473
    4.740    6.4069
    4.875    6.5473
    5.010    6.8282
    5.145    8.1973
    5.280   10.9005
    5.415   18.0797
    5.550   11.9712
    5.685    7.2143
    5.820    6.6351
    5.955    6.7228
    6.090    6.6351
    6.225    6.2138
    6.360    6.5473
    6.495    7.1617
    6.630    8.5308
    6.765    9.9702
    6.900    6.4771
    7.035    6.5649
    7.170    6.7579
    7.305    6.4595
    7.440    6.3893
    7.575    7.2494
    7.710    8.6186
    7.845    7.3547
    7.980    6.4420
    8.115    6.9159
    8.250    6.3718
    8.385    6.8633
    8.520    7.3196
    8.655    7.8989
    8.790    7.2670
    8.925    6.8282
    9.060    7.2143
    9.195    7.1968
    9.330    7.6883
    9.465    9.4085
    9.600   10.1106
    9.735    7.2845
    9.870    7.9164
   10.005    7.2143
   10.140    7.9340
   10.275    8.3728
   10.410    7.7585
   10.545    7.3899
   10.680    6.5649
   10.815    7.0563
   10.950    7.5478
   11.085    7.9691
   11.220    6.8984
   11.355    5.8803
   11.490    6.6526
   11.625    7.3372
   11.760    7.3372
   11.895    6.3893
   12.030    5.9505
   12.165    6.4244
   12.300    6.5473
   12.435    6.3191
   12.570    6.3016
   12.705    6.2489
   12.840    5.9681
   12.975    7.4250
   13.110    6.0383
   13.245    5.9681
   13.380    5.9681
   13.515    6.5298
   13.650    6.1787
   13.785    5.9681
   13.920    6.0383
   14.055    6.4946
   14.190    6.3718
   14.325    5.7048
   14.460    5.2484
   14.595    5.8803
   14.730    5.9329
   14.865    6.3718
   15.000    5.7223
   15.135    6.1436
   15.270    5.9154
   15.405    5.8803
   15.540    6.4946
   15.675    5.8452
   15.810    5.7399
   15.945    6.1260
   16.080    6.1085
   16.215    6.5122
   16.350    6.3893
   16.485    5.7048
   16.620    6.4595
   16.755    5.9681
   16.890    5.9505
   17.025    5.8978
   17.160    5.9154
   17.295    5.7048
   17.430    6.3191
   17.565    6.4595
   17.700    6.0734
   17.835    5.9329
   17.970    5.9681
   18.105    6.0734
   18.240    5.7223
   18.375    5.5819
   18.510    5.6872
   18.645    5.8978
   18.780    6.0207
   18.915    6.1085
   19.050    5.8978
   19.185    6.5649
   19.320    5.9505
   19.455    5.8803
   19.590    6.8984
   19.725    5.7399
   19.860    6.1085
   19.995    5.9681
   20.130    6.3367
   20.265    6.0207
   20.400    6.3718
   20.535    6.0032
   20.670    6.0383
   20.805    6.1962
   20.940    6.0207
   21.075    5.8101
   21.210    6.0207
   21.345    5.8627
   21.480    6.3191
   21.615    5.7925
   21.750    5.8978
   21.885    6.4244
   22.020    6.2138
   22.155    6.1260
   22.290    6.4595
   22.425    6.1436
   22.560    6.4595
   22.695    6.4069
   22.830    6.7228
   22.965    6.4069
   23.100    6.1436
   23.235    6.1962
   23.370    6.3367
   23.505    5.9329
   23.640    6.1436
   23.775    6.4069
   23.910    6.0558
   24.045    6.3542
   24.180    5.9329
   24.315    6.0032
   24.450    6.1962
   24.585    6.1260
   24.720    6.0032
   24.855    5.7399
   24.990    6.2313
   25.125    5.7223
   25.260    5.5468
   25.395    6.0909
   25.530    6.0558
   25.665    5.3712
   25.800    6.5824
   25.935    6.1787
   26.070    5.7574
   26.205    5.5292
   26.340    5.9856
   26.475    5.7399
   26.610    6.3016
   26.745    5.6697
   26.880    5.7925
   27.015    5.9505
   27.150    6.1962
   27.285    5.9329
   27.420    5.5819
   27.555    6.0207
   27.690    5.5117
   27.825    5.7750
   27.960    5.8978
   28.095    6.0558
   28.230    5.6170
   28.365    5.5292
   28.500    5.5292
   28.635    5.3537
   28.770    5.3537
   28.905    5.9329
   29.040    5.3712
   29.175    6.0383
   29.310    5.8452
   29.445    5.6872
   29.580    5.2484
   29.715    4.9149
   29.850    5.4239
   29.985    5.3537
   30.120    5.1255
   30.255    5.5643
   30.390    5.3010
   30.525    5.3888
   30.660    5.3712
   30.795    5.3712
   30.930    5.5292
   31.065    5.1080
   31.200    5.3888
   31.335    5.1255
   31.470    4.9324
   31.605    5.4766
   31.740    5.3537
   31.875    5.5117
   32.010    5.5468
   32.145    5.9329
   32.280    4.9149
   32.415    5.1782
   32.550    4.9851
   32.685    4.9851
   32.820    4.7569
   32.955    5.0904
   33.090    4.9324
   33.225    5.3888
   33.360    5.3010
   33.495    4.9675
   33.630    4.7920
   33.765    5.4239
   33.900    4.7393
   34.035    5.1431
   34.170    4.8095
   34.305    5.1080
   34.440    4.6516
   34.575    4.8798
   34.710    4.7393
   34.845    5.1255
   34.980    4.8798
   35.115    4.9851
   35.250    4.8798
   35.385    4.8622
   35.520    4.7218
   35.655    5.2308
   35.790    5.0904
   35.925    4.7393
   36.060    4.5638
   36.195    5.0202
   36.330    5.2133
   36.465    4.8622
   36.600    4.4409
   36.735    4.7218
   36.870    4.9851
   37.005    4.6165
   37.140    5.2308
   37.275    4.8271
   37.410    4.4409
   37.545    4.5287
   37.680    4.7920
   37.815    5.1080
   37.950    5.1782
   38.085    4.6340
   38.220    4.8271
   38.355    4.7393
   38.490    4.8798
   38.625    5.0728
   38.760    5.2484
   38.895    4.5638
   39.030    4.6165
   39.165    4.7569
   39.300    4.6691
   39.435    4.7393
   39.570    5.2308
   39.705    4.8095
   39.840    4.6867
   39.975    4.9149
   39.990    4.9324