File: data/MOCOF-1/PXRD/PXRD_KE-144_Cu-Ka1_capillary-1mm_5s-deg.xyd
    1.500   56.1980
    1.635   47.7409
    1.770   39.6209
    1.905   33.7757
    2.040   30.7741
    2.175   27.5303
    2.310   27.2459
    2.445   25.9716
    2.580   25.9610
    2.715   28.0253
    2.850   30.7109
    2.985   35.7767
    3.120   43.1490
    3.255   54.7657
    3.390   71.3007
    3.525   73.0069
    3.660   54.9658
    3.795   42.2433
    3.930   36.1559
    4.065   30.2580
    4.200   25.1501
    4.335   20.1159
    4.470   15.6187
    4.605   13.6493
    4.740   11.5850
    4.875    9.5840
    5.010    9.0890
    5.145    9.1522
    5.280    8.2886
    5.415    8.4150
    5.550    7.7936
    5.685    7.5513
    5.820    7.0353
    5.955    7.4566
    6.090    6.9721
    6.225    6.8352
    6.360    7.1406
    6.495    7.7620
    6.630    8.3939
    6.765    9.1417
    6.900   10.9742
    7.035   11.1427
    7.170    9.8999
    7.305    8.5203
    7.440    8.1833
    7.575    7.4566
    7.710    7.8357
    7.845    7.9726
    7.980    8.2991
    8.115    8.1938
    8.250    8.1306
    8.385    7.7830
    8.520    7.8989
    8.655    7.2986
    8.790    7.0879
    8.925    7.1933
    9.060    6.6877
    9.195    6.4350
    9.330    6.6351
    9.465    6.4560
    9.600    6.3612
    9.735    6.4876
    9.870    6.0979
   10.005    6.1190
   10.140    6.1401
   10.275    6.1611
   10.410    6.6351
   10.545    6.2349
   10.680    6.4350
   10.815    6.1401
   10.950    6.0348
   11.085    6.0769
   11.220    6.5508
   11.355    5.9716
   11.490    6.2243
   11.625    6.2033
   11.760    6.4560
   11.895    6.2665
   12.030    6.3191
   12.165    6.2770
   12.300    6.2875
   12.435    6.3718
   12.570    6.0137
   12.705    6.1401
   12.840    5.9400
   12.975    6.2454
   13.110    5.7820
   13.245    6.4876
   13.380    6.2665
   13.515    5.6872
   13.650    6.0348
   13.785    6.0874
   13.920    5.8136
   14.055    6.2770
   14.190    5.9189
   14.325    5.7293
   14.460    5.7609
   14.595    5.9189
   14.730    6.0769
   14.865    5.8978
   15.000    6.0242
   15.135    5.8662
   15.270    5.7820
   15.405    5.6872
   15.540    6.3086
   15.675    5.8557
   15.810    5.7925
   15.945    5.9400
   16.080    6.3402
   16.215    6.5824
   16.350    5.8136
   16.485    5.8557
   16.620    6.2454
   16.755    5.4660
   16.890    6.0453
   17.025    6.0032
   17.160    6.2243
   17.295    5.5503
   17.430    5.9716
   17.565    5.8452
   17.700    6.0558
   17.835    6.0664
   17.970    6.0979
   18.105    5.8136
   18.240    5.5608
   18.375    5.8978
   18.510    6.1085
   18.645    6.1295
   18.780    5.6345
   18.915    6.2454
   19.050    6.2665
   19.185    6.0558
   19.320    6.0664
   19.455    6.3296
   19.590    6.4771
   19.725    6.0874
   19.860    6.1506
   19.995    6.2770
   20.130    6.4034
   20.265    6.2349
   20.400    6.4455
   20.535    6.6035
   20.670    6.4244
   20.805    6.3296
   20.940    6.0348
   21.075    6.6140
   21.210    6.7720
   21.345    6.5087
   21.480    6.3191
   21.615    6.2665
   21.750    6.0664
   21.885    6.4350
   22.020    6.6351
   22.155    6.6561
   22.290    6.2559
   22.425    6.3507
   22.560    6.7825
   22.695    6.7193
   22.830    6.5192
   22.965    6.5192
   23.100    6.7825
   23.235    6.3823
   23.370    6.3823
   23.505    6.3612
   23.640    6.3086
   23.775    5.9505
   23.910    5.8768
   24.045    5.6240
   24.180    5.7609
   24.315    6.0137
   24.450    6.2243
   24.585    6.3402
   24.720    5.8347
   24.855    6.2665
   24.990    6.0664
   25.125    5.9926
   25.260    5.7820
   25.395    6.0769
   25.530    6.0979
   25.665    5.7293
   25.800    5.7715
   25.935    5.9400
   26.070    5.9294
   26.205    5.6240
   26.340    5.4871
   26.475    5.8662
   26.610    5.9716
   26.745    5.4450
   26.880    5.6661
   27.015    5.2027
   27.150    5.4976
   27.285    5.3186
   27.420    5.6240
   27.555    5.4134
   27.690    5.5398
   27.825    5.8347
   27.960    5.4871
   28.095    5.5714
   28.230    5.4028
   28.365    5.8452
   28.500    5.6872
   28.635    5.3081
   28.770    5.2027
   28.905    5.8557
   29.040    5.5187
   29.175    5.4766
   29.310    5.6556
   29.445    5.2870
   29.580    5.0342
   29.715    5.1185
   29.850    5.2238
   29.985    5.3291
   30.120    4.7183
   30.255    4.9184
   30.390    5.2027
   30.525    5.1606
   30.660    5.3502
   30.795    5.2449
   30.930    5.2870
   31.065    5.1395
   31.200    5.0658
   31.335    5.0342
   31.470    5.3397
   31.605    5.0869
   31.740    5.2449
   31.875    5.1817
   32.010    5.4239
   32.145    5.2975
   32.280    5.3186
   32.415    5.1817
   32.550    4.7393
   32.685    5.0132
   32.820    4.7288
   32.955    4.9710
   33.090    4.9710
   33.225    4.8131
   33.360    5.0342
   33.495    4.5919
   33.630    4.8552
   33.765    4.8763
   33.900    4.7288
   34.035    4.7288
   34.170    4.5498
   34.305    4.9289
   34.440    4.7393
   34.575    4.6867
   34.710    4.6130
   34.845    4.3602
   34.980    4.3391
   35.115    4.6235
   35.250    4.5919
   35.385    4.4444
   35.520    4.4128
   35.655    4.3181
   35.790    4.5498
   35.925    4.4550
   36.060    4.3602
   36.195    4.2233
   36.330    4.5498
   36.465    4.5182
   36.600    4.4023
   36.735    4.2865
   36.870    4.4760
   37.005    4.3181
   37.140    4.4655
   37.275    4.5392
   37.410    4.2759
   37.545    4.2970
   37.680    3.9494
   37.815    4.3602
   37.950    4.3181
   38.085    4.1917
   38.220    4.2233
   38.355    3.9494
   38.490    4.4234
   38.625    4.1601
   38.760    4.3391
   38.895    4.5498
   39.030    4.6972
   39.165    4.6024
   39.300    4.4655
   39.435    4.4339
   39.570    4.1496
   39.705    4.4760
   39.840    4.2970
   39.975    4.3391
   39.990    4.1601