File: data/MOCOF-1/PXRD/PXRD_KE-112_Cu-Ka1_capillary-1mm_5s-deg.xyd
    1.500   16.3454
    1.635   15.2080
    1.770   14.8078
    1.905   13.9126
    2.040   12.4908
    2.175   12.3433
    2.310   11.6693
    2.445   11.1216
    2.580   11.3007
    2.715   10.7109
    2.850   10.4055
    2.985   10.5740
    3.120   10.4160
    3.255   10.7109
    3.390   11.3428
    3.525   10.8268
    3.660    9.2996
    3.795    8.8257
    3.930    9.1522
    4.065    8.9310
    4.200    8.4360
    4.335    7.4671
    4.470    7.3512
    4.605    7.2459
    4.740    7.2354
    4.875    7.0248
    5.010    6.5192
    5.145    6.9089
    5.280    6.6983
    5.415    6.2454
    5.550    6.3612
    5.685    6.3928
    5.820    6.2770
    5.955    6.3928
    6.090    5.7715
    6.225    5.9716
    6.360    5.8662
    6.495    6.3928
    6.630    6.2033
    6.765    6.3507
    6.900    6.6140
    7.035    6.6983
    7.170    6.2875
    7.305    6.4139
    7.440    6.5824
    7.575    6.2243
    7.710    6.6772
    7.845    6.6561
    7.980    6.5192
    8.115    6.5403
    8.250    6.8984
    8.385    6.6561
    8.520    6.8457
    8.655    6.4876
    8.790    6.7193
    8.925    6.8141
    9.060    6.3191
    9.195    6.7720
    9.330    6.5719
    9.465    6.4034
    9.600    6.1717
    9.735    6.2349
    9.870    6.3191
   10.005    6.4244
   10.140    6.6456
   10.275    6.5192
   10.410    6.2243
   10.545    6.1401
   10.680    6.3718
   10.815    5.9084
   10.950    5.9926
   11.085    6.1085
   11.220    6.2349
   11.355    6.5824
   11.490    5.8241
   11.625    6.0453
   11.760    5.9294
   11.895    5.6661
   12.030    5.4555
   12.165    5.8241
   12.300    5.6451
   12.435    5.5819
   12.570    5.8978
   12.705    5.4450
   12.840    5.6767
   12.975    5.6977
   13.110    5.6661
   13.245    5.7820
   13.380    5.6345
   13.515    5.9505
   13.650    5.8347
   13.785    5.9716
   13.920    5.8978
   14.055    5.6451
   14.190    5.6135
   14.325    5.5398
   14.460    5.7609
   14.595    5.8136
   14.730    5.7293
   14.865    5.3397
   15.000    5.6556
   15.135    5.8031
   15.270    5.7083
   15.405    5.7399
   15.540    5.5187
   15.675    5.6451
   15.810    5.5082
   15.945    5.4766
   16.080    5.8768
   16.215    5.7504
   16.350    5.8873
   16.485    5.5398
   16.620    5.5714
   16.755    5.7399
   16.890    5.6029
   17.025    5.5714
   17.160    5.6977
   17.295    5.5187
   17.430    5.8662
   17.565    5.3818
   17.700    5.5608
   17.835    5.5398
   17.970    5.3397
   18.105    5.7925
   18.240    5.7715
   18.375    5.8873
   18.510    5.5819
   18.645    5.8136
   18.780    5.9400
   18.915    5.3818
   19.050    5.6872
   19.185    5.9505
   19.320    6.1822
   19.455    5.6872
   19.590    5.5924
   19.725    5.9926
   19.860    6.1190
   19.995    5.6977
   20.130    5.7925
   20.265    5.9294
   20.400    5.8136
   20.535    5.7293
   20.670    5.8662
   20.805    5.6872
   20.940    5.9610
   21.075    5.7504
   21.210    5.8031
   21.345    6.2770
   21.480    5.9400
   21.615    5.9294
   21.750    5.8136
   21.885    5.7188
   22.020    6.0242
   22.155    5.6767
   22.290    6.1190
   22.425    6.0137
   22.560    5.8978
   22.695    6.3402
   22.830    5.6872
   22.965    5.9084
   23.100    5.9294
   23.235    5.6767
   23.370    5.6977
   23.505    5.4555
   23.640    5.6240
   23.775    5.6135
   23.910    5.9189
   24.045    5.8452
   24.180    5.6345
   24.315    5.3186
   24.450    5.3923
   24.585    5.8662
   24.720    5.8136
   24.855    5.6345
   24.990    5.5819
   25.125    5.2027
   25.260    5.6135
   25.395    5.3186
   25.530    5.5924
   25.665    5.6556
   25.800    5.5714
   25.935    5.1817
   26.070    5.1922
   26.205    5.0974
   26.340    5.2343
   26.475    5.2554
   26.610    5.4344
   26.745    5.2765
   26.880    5.1922
   27.015    4.7709
   27.150    5.1606
   27.285    5.2027
   27.420    5.1185
   27.555    5.2765
   27.690    5.2133
   27.825    5.1817
   27.960    4.9816
   28.095    4.8657
   28.230    5.1080
   28.365    5.0553
   28.500    5.0553
   28.635    5.1501
   28.770    4.7815
   28.905    5.1606
   29.040    5.0764
   29.175    4.9078
   29.310    4.8025
   29.445    4.7920
   29.580    4.8763
   29.715    4.5708
   29.850    4.7393
   29.985    4.6867
   30.120    4.7604
   30.255    4.6551
   30.390    4.9289
   30.525    4.3813
   30.660    4.5182
   30.795    4.4971
   30.930    4.5708
   31.065    4.6551
   31.200    4.7077
   31.335    4.5919
   31.470    4.5603
   31.605    4.5182
   31.740    4.2443
   31.875    4.2865
   32.010    4.4550
   32.145    4.4760
   32.280    4.3181
   32.415    4.4760
   32.550    4.7183
   32.685    4.3813
   32.820    4.6445
   32.955    4.6024
   33.090    4.2970
   33.225    4.3813
   33.360    4.6024
   33.495    4.1601
   33.630    4.3286
   33.765    4.0126
   33.900    3.9073
   34.035    4.3286
   34.170    4.3707
   34.305    4.2233
   34.440    4.0969
   34.575    4.1811
   34.710    4.1180
   34.845    4.2022
   34.980    4.0337
   35.115    4.2549
   35.250    4.2022
   35.385    4.0864
   35.520    4.1180
   35.655    4.1496
   35.790    3.7177
   35.925    3.8441
   36.060    4.2127
   36.195    3.9073
   36.330    3.9916
   36.465    3.9810
   36.600    3.9389
   36.735    3.9284
   36.870    4.1811
   37.005    3.9179
   37.140    3.8547
   37.275    3.8125
   37.410    4.0653
   37.545    3.7283
   37.680    3.8231
   37.815    3.9600
   37.950    3.8863
   38.085    3.6967
   38.220    3.9073
   38.355    3.7388
   38.490    3.6546
   38.625    3.9705
   38.760    3.8863
   38.895    3.7915
   39.030    3.9600
   39.165    4.0758
   39.300    3.8441
   39.435    3.6756
   39.570    3.8757
   39.705    3.7704
   39.840    3.8757
   39.975    3.7704
   39.990    4.1706