File: data/MOCOF-1/PXRD/PXRD_KE-082-2_Cu-Ka1_film-3mm_5s-deg.xyd
    1.500   16.0084
    1.635   13.8915
    1.770   11.2586
    1.905   10.1001
    2.040    9.3312
    2.175    7.9831
    2.310    7.2670
    2.445    6.9721
    2.580    6.7509
    2.715    6.3191
    2.850    5.6556
    2.985    5.8557
    3.120    5.9610
    3.255    5.7925
    3.390    5.2765
    3.525    5.1711
    3.660    5.5819
    3.795    5.6556
    3.930    6.1295
    4.065    5.4239
    4.200    5.4766
    4.335    5.1922
    4.470    5.3923
    4.605    5.3502
    4.740    5.8031
    4.875    5.6556
    5.010    5.8873
    5.145    6.1506
    5.280    6.8984
    5.415    6.5508
    5.550    7.7725
    5.685    6.6456
    5.820    6.5719
    5.955    5.7188
    6.090    5.4134
    6.225    4.8973
    6.360    5.1080
    6.495    4.8552
    6.630    4.6656
    6.765    5.0869
    6.900    4.7920
    7.035    4.4760
    7.170    4.5392
    7.305    4.7604
    7.440    4.3602
    7.575    4.0337
    7.710    4.0864
    7.845    3.7809
    7.980    3.6967
    8.115    3.7915
    8.250    3.5808
    8.385    3.7283
    8.520    3.5808
    8.655    3.3070
    8.790    3.6335
    8.925    3.4439
    9.060    3.5598
    9.195    3.2965
    9.330    3.3175
    9.465    3.6440
    9.600    3.4966
    9.735    3.5703
    9.870    3.2438
   10.005    3.3281
   10.140    3.4123
   10.275    3.2543
   10.410    3.3491
   10.545    3.5492
   10.680    3.4860
   10.815    3.6756
   10.950    3.3807
   11.085    3.8863
   11.220    3.7599
   11.355    3.2438
   11.490    3.4334
   11.625    3.5282
   11.760    3.3807
   11.895    3.2859
   12.030    3.2649
   12.165    3.5282
   12.300    3.0226
   12.435    3.4544
   12.570    3.1280
   12.705    3.1701
   12.840    3.2965
   12.975    3.3070
   13.110    3.5703
   13.245    3.2438
   13.380    3.1069
   13.515    3.3070
   13.650    3.2543
   13.785    3.2122
   13.920    3.4966
   14.055    3.4544
   14.190    3.5492
   14.325    3.4229
   14.460    3.7177
   14.595    3.3281
   14.730    3.3386
   14.865    2.9384
   15.000    3.1490
   15.135    3.1806
   15.270    2.8120
   15.405    3.2754
   15.540    3.1174
   15.675    3.2438
   15.810    3.1806
   15.945    3.0332
   16.080    3.1701
   16.215    3.4229
   16.350    3.1174
   16.485    2.9279
   16.620    3.2333
   16.755    3.1069
   16.890    3.2543
   17.025    3.0648
   17.160    3.0332
   17.295    3.2017
   17.430    3.1701
   17.565    3.0332
   17.700    3.0437
   17.835    3.0648
   17.970    2.8015
   18.105    3.1806
   18.240    3.1174
   18.375    3.0753
   18.510    2.9910
   18.645    2.9384
   18.780    3.0332
   18.915    3.1701
   19.050    3.0121
   19.185    3.2333
   19.320    3.0016
   19.455    2.9595
   19.590    3.0226
   19.725    2.9805
   19.860    2.8331
   19.995    3.1174
   20.130    2.7172
   20.265    2.9384
   20.400    2.8225
   20.535    2.9700
   20.670    2.8331
   20.805    3.0226
   20.940    2.8752
   21.075    2.4645
   21.210    2.9384
   21.345    2.8331
   21.480    2.8331
   21.615    2.7278
   21.750    2.6435
   21.885    2.7383
   22.020    2.7804
   22.155    2.6330
   22.290    2.8541
   22.425    2.4855
   22.560    2.7488
   22.695    2.7699
   22.830    2.6856
   22.965    2.6751
   23.100    2.4750
   23.235    2.6224
   23.370    2.3170
   23.505    2.6540
   23.640    2.5908
   23.775    2.6014
   23.910    2.4645
   24.045    2.4539
   24.180    2.5382
   24.315    2.2433
   24.450    2.3275
   24.585    2.4750
   24.720    2.4013
   24.855    2.5487
   24.990    2.4329
   25.125    2.5487
   25.260    2.2538
   25.395    2.3486
   25.530    2.4013
   25.665    2.0958
   25.800    2.4013
   25.935    2.1906
   26.070    2.2328
   26.205    2.1380
   26.340    2.1801
   26.475    2.4013
   26.610    2.1801
   26.745    1.9695
   26.880    2.2012
   27.015    2.1801
   27.150    2.2012
   27.285    2.4329
   27.420    2.1274
   27.555    1.9800
   27.690    2.2538
   27.825    2.0011
   27.960    1.9695
   28.095    1.9695
   28.230    1.9168
   28.365    1.9800
   28.500    1.8431
   28.635    1.8536
   28.770    2.0221
   28.905    1.6851
   29.040    1.9800
   29.175    2.0748
   29.310    2.2643
   29.445    1.7272
   29.580    1.7167
   29.715    1.8957
   29.850    1.9063
   29.985    1.8957
   30.120    1.8009
   30.255    2.0853
   30.390    1.6219
   30.525    1.8431
   30.660    1.5166
   30.795    1.5903
   30.930    1.5482
   31.065    1.8747
   31.200    1.3902
   31.335    1.5903
   31.470    1.5377
   31.605    1.5798
   31.740    1.5903
   31.875    1.6219
   32.010    1.6219
   32.145    1.5482
   32.280    1.5377
   32.415    1.4639
   32.550    1.6956
   32.685    1.5271
   32.820    1.5377
   32.955    1.5061
   33.090    1.4323
   33.225    1.4429
   33.360    1.3481
   33.495    1.4639
   33.630    1.6324
   33.765    1.5482
   33.900    1.6219
   34.035    1.5166
   34.170    1.1374
   34.305    1.2744
   34.440    1.5061
   34.575    1.4429
   34.710    1.3375
   34.845    1.3270
   34.980    1.3481
   35.115    1.4007
   35.250    1.3902
   35.385    1.3902
   35.520    1.3797
   35.655    1.2954
   35.790    1.3165
   35.925    1.5482
   36.060    1.6114
   36.195    1.3481
   36.330    1.2744
   36.465    1.4639
   36.600    1.2744
   36.735    1.3060
   36.870    1.3902
   37.005    1.4113
   37.140    1.3270
   37.275    1.3165
   37.410    1.3165
   37.545    1.2217
   37.680    1.3691
   37.815    1.3902
   37.950    1.3586
   38.085    1.4323
   38.220    1.1374
   38.355    1.2954
   38.490    1.1690
   38.625    1.1690
   38.760    1.2744
   38.895    1.2217
   39.030    1.3691
   39.165    1.1480
   39.300    1.3165
   39.435    1.2112
   39.570    1.1585
   39.705    1.1269
   39.840    1.2744
   39.975    1.1690
   39.990    1.2638