File: data/MOCOF-1/PXRD/PXRD_KE-126_Cu-Ka1_capillary-1mm_5s-deg.xyd
    1.500   13.5334
    1.635   13.1438
    1.770   12.6698
    1.905   12.9542
    2.040   12.7225
    2.175   13.3544
    2.310   13.7757
    2.445   15.3976
    2.580   17.4092
    2.715   20.1264
    2.850   23.1174
    2.985   29.0153
    3.120   37.5777
    3.255   51.8378
    3.390   84.5076
    3.525   68.9837
    3.660   31.5008
    3.795   34.3971
    3.930   41.8957
    4.065   40.6003
    4.200   26.6772
    4.335   16.3560
    4.470    9.8368
    4.605    7.5303
    4.740    6.4350
    4.875    6.0032
    5.010    5.4555
    5.145    5.4239
    5.280    5.4239
    5.415    5.4028
    5.550    5.3186
    5.685    5.2238
    5.820    5.1395
    5.955    4.9500
    6.090    5.3818
    6.225    4.9921
    6.360    5.6661
    6.495    5.9716
    6.630    6.6456
    6.765    8.7098
    6.900   13.1016
    7.035   10.9953
    7.170    6.2875
    7.305    5.8873
    7.440    5.9400
    7.575    6.0453
    7.710    6.4560
    7.845    7.0669
    7.980    7.6672
    8.115    8.0990
    8.250    7.7199
    8.385    6.7299
    8.520    6.6140
    8.655    6.0664
    8.790    5.6345
    8.925    5.3607
    9.060    5.2449
    9.195    5.0026
    9.330    4.8025
    9.465    4.6551
    9.600    4.8025
    9.735    4.6972
    9.870    4.9078
   10.005    5.1185
   10.140    4.5182
   10.275    4.9921
   10.410    5.5503
   10.545    4.9078
   10.680    5.1606
   10.815    4.8341
   10.950    4.7709
   11.085    4.7709
   11.220    4.6340
   11.355    4.8447
   11.490    4.9500
   11.625    5.1501
   11.760    5.0448
   11.895    5.0026
   12.030    5.2659
   12.165    5.1711
   12.300    5.1817
   12.435    5.1290
   12.570    4.9710
   12.705    4.8552
   12.840    4.6867
   12.975    4.7815
   13.110    4.9500
   13.245    5.2027
   13.380    4.9921
   13.515    5.2133
   13.650    5.0237
   13.785    5.0974
   13.920    5.1185
   14.055    4.7709
   14.190    4.6867
   14.325    4.8657
   14.460    4.6761
   14.595    4.5814
   14.730    4.7920
   14.865    4.7709
   15.000    4.6130
   15.135    4.7499
   15.270    4.4444
   15.405    4.9816
   15.540    4.6972
   15.675    4.4444
   15.810    4.8868
   15.945    4.3497
   16.080    4.9816
   16.215    4.8131
   16.350    4.6130
   16.485    4.9710
   16.620    4.4234
   16.755    4.7288
   16.890    4.6130
   17.025    4.4339
   17.160    4.6656
   17.295    4.5814
   17.430    5.0553
   17.565    4.9078
   17.700    4.7288
   17.835    4.7393
   17.970    4.9816
   18.105    4.7604
   18.240    4.6761
   18.375    4.6024
   18.510    4.9394
   18.645    4.7499
   18.780    5.0553
   18.915    4.9816
   19.050    5.0026
   19.185    5.0132
   19.320    5.0026
   19.455    4.8657
   19.590    4.9921
   19.725    5.0869
   19.860    5.5503
   19.995    5.0764
   20.130    5.2449
   20.265    5.2870
   20.400    5.3923
   20.535    5.2659
   20.670    5.2765
   20.805    5.1501
   20.940    5.4028
   21.075    5.4976
   21.210    5.2343
   21.345    5.6556
   21.480    5.3923
   21.615    5.2133
   21.750    5.6345
   21.885    5.2238
   22.020    5.2659
   22.155    5.1185
   22.290    5.1606
   22.425    5.2343
   22.560    5.5924
   22.695    5.2975
   22.830    5.2238
   22.965    5.5819
   23.100    5.0869
   23.235    5.3923
   23.370    4.9921
   23.505    4.9289
   23.640    4.7604
   23.775    5.2343
   23.910    5.4028
   24.045    4.9289
   24.180    5.0553
   24.315    4.8131
   24.450    4.9184
   24.585    5.2554
   24.720    5.0448
   24.855    5.1606
   24.990    5.1185
   25.125    4.8552
   25.260    4.7709
   25.395    4.7709
   25.530    4.7499
   25.665    4.6656
   25.800    4.3918
   25.935    4.2970
   26.070    4.7183
   26.205    4.2865
   26.340    4.4339
   26.475    4.2338
   26.610    4.5076
   26.745    4.5603
   26.880    4.3181
   27.015    4.6551
   27.150    4.7288
   27.285    4.3918
   27.420    4.2127
   27.555    4.3391
   27.690    4.6024
   27.825    3.8652
   27.960    4.6024
   28.095    4.6130
   28.230    5.0448
   28.365    4.6024
   28.500    4.5287
   28.635    4.2549
   28.770    4.0758
   28.905    4.2759
   29.040    4.3181
   29.175    4.3602
   29.310    4.2233
   29.445    4.0864
   29.580    4.3075
   29.715    3.9705
   29.850    4.1285
   29.985    4.2338
   30.120    4.1601
   30.255    4.1390
   30.390    4.0337
   30.525    4.4655
   30.660    4.3075
   30.795    4.0232
   30.930    3.7072
   31.065    4.1496
   31.200    4.2443
   31.335    4.1390
   31.470    4.2233
   31.605    4.4444
   31.740    4.1706
   31.875    4.0126
   32.010    4.1074
   32.145    4.0126
   32.280    3.7599
   32.415    3.7809
   32.550    3.8757
   32.685    3.7283
   32.820    4.0548
   32.955    3.6967
   33.090    3.5176
   33.225    3.7809
   33.360    3.5071
   33.495    3.4018
   33.630    3.8125
   33.765    3.6546
   33.900    3.8968
   34.035    3.6756
   34.170    3.3281
   34.305    3.6862
   34.440    3.5387
   34.575    3.5808
   34.710    3.3491
   34.845    3.4334
   34.980    3.6756
   35.115    3.2438
   35.250    3.8231
   35.385    3.5703
   35.520    3.2859
   35.655    3.2227
   35.790    3.6230
   35.925    3.2754
   36.060    3.3175
   36.195    3.2859
   36.330    2.8752
   36.465    3.3070
   36.600    3.5387
   36.735    3.1701
   36.870    3.4123
   37.005    3.0964
   37.140    3.1596
   37.275    3.3175
   37.410    3.1596
   37.545    3.2438
   37.680    3.0332
   37.815    3.3175
   37.950    3.0753
   38.085    3.0437
   38.220    3.4123
   38.355    2.9700
   38.490    3.0648
   38.625    3.2438
   38.760    3.4018
   38.895    3.0648
   39.030    3.1069
   39.165    3.1280
   39.300    2.8963
   39.435    3.0226
   39.570    3.0226
   39.705    3.2017
   39.840    3.0753
   39.975    3.1174
   39.990    2.9068