File: data/MOCOF-1/PXRD/PXRD_KE-140_Cu-Ka1_capillary-1mm_5s-deg.xyd
    1.500   19.0100
    1.635   16.6930
    1.770   14.5972
    1.905   13.1016
    2.040   12.3117
    2.175   11.8378
    2.310   10.3739
    2.445   10.9426
    2.580    9.8157
    2.715    9.6577
    2.850   10.0895
    2.985    9.3839
    3.120   10.0895
    3.255   10.3002
    3.390   10.6477
    3.525   11.6377
    3.660   11.9642
    3.795   14.8394
    3.930   12.3223
    4.065    8.9415
    4.200    8.3518
    4.335    8.1306
    4.470    8.1622
    4.605    8.1306
    4.740    8.3307
    4.875    8.6361
    5.010    8.4044
    5.145    8.6151
    5.280    8.6572
    5.415   10.1422
    5.550    9.5313
    5.685    8.4676
    5.820    8.2043
    5.955    8.1411
    6.090    7.9726
    6.225    7.8989
    6.360    8.2991
    6.495    7.7199
    6.630    8.5519
    6.765    8.3623
    6.900    8.3202
    7.035    8.0147
    7.170    8.0885
    7.305    8.0990
    7.440    8.4466
    7.575    7.9094
    7.710    8.9415
    7.845    8.6888
    7.980    8.2043
    8.115    8.3939
    8.250    8.3518
    8.385    8.2991
    8.520    8.9521
    8.655    8.4044
    8.790    8.1938
    8.925    8.5835
    9.060    8.0885
    9.195    8.7204
    9.330    8.8784
    9.465    9.4155
    9.600    8.9942
    9.735    8.7625
    9.870    8.9731
   10.005    8.3307
   10.140    8.8678
   10.275    8.8362
   10.410    8.8889
   10.545    8.6467
   10.680    8.1622
   10.815    8.2464
   10.950    8.1095
   11.085    8.2464
   11.220    8.2359
   11.355    8.0569
   11.490    8.4255
   11.625    8.4676
   11.760    8.2675
   11.895    7.8989
   12.030    8.1517
   12.165    8.4360
   12.300    7.7936
   12.435    7.8884
   12.570    7.9305
   12.705    8.2359
   12.840    8.0674
   12.975    7.9410
   13.110    8.0569
   13.245    7.6251
   13.380    7.6040
   13.515    7.9094
   13.650    8.1306
   13.785    8.3518
   13.920    8.3834
   14.055    8.0779
   14.190    7.9937
   14.325    8.0569
   14.460    7.8884
   14.595    8.0463
   14.730    8.3096
   14.865    7.8989
   15.000    7.8146
   15.135    8.2464
   15.270    7.7093
   15.405    7.6988
   15.540    8.0779
   15.675    8.2780
   15.810    8.8678
   15.945    9.2786
   16.080    9.4471
   16.215    9.5524
   16.350    8.8678
   16.485    8.7309
   16.620    8.2886
   16.755    8.3939
   16.890    7.6356
   17.025    8.2780
   17.160    8.5940
   17.295    8.4781
   17.430    7.7725
   17.565    8.2359
   17.700    8.6677
   17.835    8.1833
   17.970    7.9305
   18.105    8.0358
   18.240    7.8778
   18.375    8.2570
   18.510    7.8041
   18.645    7.9726
   18.780    8.1411
   18.915    8.5835
   19.050    8.2149
   19.185    7.8146
   19.320    8.1201
   19.455    7.8252
   19.590    8.2043
   19.725    8.3307
   19.860    8.1411
   19.995    8.4044
   20.130    7.8989
   20.265    7.5197
   20.400    8.3307
   20.535    7.6777
   20.670    7.8041
   20.805    7.8146
   20.940    7.6672
   21.075    8.0253
   21.210    8.2675
   21.345    8.0779
   21.480    8.4887
   21.615    8.1306
   21.750    8.2464
   21.885    7.7936
   22.020    8.4360
   22.155    8.4992
   22.290    8.2675
   22.425    8.1727
   22.560    8.5203
   22.695    8.2675
   22.830    8.2570
   22.965    8.0990
   23.100    8.4044
   23.235    8.4676
   23.370    8.4676
   23.505    8.0569
   23.640    8.2675
   23.775    8.0147
   23.910    8.2149
   24.045    7.8989
   24.180    7.9621
   24.315    8.0990
   24.450    7.7514
   24.585    8.0147
   24.720    7.9831
   24.855    8.2570
   24.990    8.1833
   25.125    8.4887
   25.260    7.9621
   25.395    8.2886
   25.530    8.0990
   25.665    8.1938
   25.800    8.0779
   25.935    7.8884
   26.070    8.0147
   26.205    7.8357
   26.340    7.5724
   26.475    7.8568
   26.610    7.9831
   26.745    7.8778
   26.880    8.1201
   27.015    7.3934
   27.150    7.5619
   27.285    7.3723
   27.420    8.0147
   27.555    7.9200
   27.690    7.9726
   27.825    7.7514
   27.960    8.5203
   28.095    7.9726
   28.230    7.5935
   28.365    8.0779
   28.500    7.9831
   28.635    7.6567
   28.770    8.0042
   28.905    7.9726
   29.040    7.9094
   29.175    8.0253
   29.310    7.0774
   29.445    7.6883
   29.580    7.2775
   29.715    7.5935
   29.850    7.4882
   29.985    8.0779
   30.120    7.3723
   30.255    8.2043
   30.390    8.0042
   30.525    7.8252
   30.660    7.8462
   30.795    7.8778
   30.930    7.8462
   31.065    7.7936
   31.200    8.2359
   31.335    8.0990
   31.470    7.5619
   31.605    8.2780
   31.740    8.6361
   31.875    8.5624
   32.010    9.1417
   32.145    9.5945
   32.280    7.8462
   32.415    8.1517
   32.550    7.9831
   32.685    7.5619
   32.820    7.6461
   32.955    7.9410
   33.090    7.6777
   33.225    7.3618
   33.360    7.0037
   33.495    7.2775
   33.630    7.4144
   33.765    7.7830
   33.900    7.5935
   34.035    7.7830
   34.170    7.5092
   34.305    7.2249
   34.440    7.2565
   34.575    6.9826
   34.710    7.2249
   34.845    7.6145
   34.980    7.1617
   35.115    7.0037
   35.250    7.1617
   35.385    7.2038
   35.520    7.1406
   35.655    7.1301
   35.790    7.2143
   35.925    6.6667
   36.060    7.3512
   36.195    7.0774
   36.330    6.8036
   36.465    7.1722
   36.600    7.1406
   36.735    7.0563
   36.870    7.2249
   37.005    7.1301
   37.140    7.6040
   37.275    7.4776
   37.410    6.8141
   37.545    6.8246
   37.680    7.4250
   37.815    7.0669
   37.950    6.7193
   38.085    7.0563
   38.220    6.9826
   38.355    7.0037
   38.490    7.3302
   38.625    7.6461
   38.760    7.5303
   38.895    8.1201
   39.030    7.9831
   39.165    8.1306
   39.300    8.2570
   39.435    7.7093
   39.570    7.5935
   39.705    7.8568
   39.840    7.3302
   39.975    7.1933
   39.990    7.4039