File: data/MOCOF-1/PXRD/PXRD_KE-338_Cu-Ka1_capillary-1mm_3s-deg_MOCOF-1.xyd
    1.500    3.6862
    1.665    2.9840
    1.830    2.8436
    1.995    2.8787
    2.160    2.5101
    2.325    2.2292
    2.490    2.0888
    2.655    2.2292
    2.820    2.0713
    2.985    2.4223
    3.150    3.0367
    3.315    3.9846
    3.480    6.9510
    3.645   13.1473
    3.810   44.9535
    3.975    2.5452
    4.140    1.6149
    4.305    1.6851
    4.470    1.5096
    4.635    1.6675
    4.800    1.6675
    4.965    1.9308
    5.130    2.7909
    5.295    4.9324
    5.460   18.1499
    5.625    1.7027
    5.790    1.5096
    5.955    1.4394
    6.120    1.4745
    6.285    1.5096
    6.450    1.7202
    6.615    2.5803
    6.780    1.7378
    6.945    1.2112
    7.110    1.1761
    7.275    1.3165
    7.440    1.3516
    7.605    1.8606
    7.770    4.2654
    7.935    1.4042
    8.100    1.1936
    8.265    1.2287
    8.430    1.3165
    8.595    1.4569
    8.760    1.2638
    8.925    1.3340
    9.090    1.0356
    9.255    1.3867
    9.420    3.0191
    9.585    2.1239
    9.750    1.0707
    9.915    1.4920
   10.080    1.3516
   10.245    2.8436
   10.410    1.2287
   10.575    1.2638
   10.740    1.2463
   10.905    1.7729
   11.070    1.8431
   11.235    1.2287
   11.400    1.2112
   11.565    1.9659
   11.730    2.2117
   11.895    1.1410
   12.060    1.1234
   12.225    1.3691
   12.390    1.1936
   12.555    1.1761
   12.720    1.2112
   12.885    2.7207
   13.050    1.1936
   13.215    1.1234
   13.380    1.2463
   13.545    1.0181
   13.710    1.2112
   13.875    1.1234
   14.040    2.0362
   14.205    1.1585
   14.370    1.1410
   14.535    1.1058
   14.700    1.2814
   14.865    1.1058
   15.030    1.5096
   15.195    1.2638
   15.360    1.1058
   15.525    0.9654
   15.690    1.3691
   15.855    1.0181
   16.020    1.2463
   16.185    1.1585
   16.350    1.1234
   16.515    1.4394
   16.680    1.0707
   16.845    1.0005
   17.010    2.1766
   17.175    1.0356
   17.340    1.0883
   17.505    1.5096
   17.670    1.1936
   17.835    1.2287
   18.000    0.9303
   18.165    1.4218
   18.330    1.4569
   18.495    1.1936
   18.660    1.2112
   18.825    1.1585
   18.990    1.0532
   19.155    1.0532
   19.320    0.9479
   19.485    1.2989
   19.650    1.0532
   19.815    1.1585
   19.980    0.9654
   20.145    1.4745
   20.310    1.9659
   20.475    1.1585
   20.640    1.3516
   20.805    1.0532
   20.970    1.3165
   21.135    1.2287
   21.300    1.2989
   21.465    1.0005
   21.630    1.1585
   21.795    1.3867
   21.960    1.2989
   22.125    1.2989
   22.290    1.0883
   22.455    1.5096
   22.620    1.2463
   22.785    1.7027
   22.950    1.3165
   23.115    1.3516
   23.280    1.0883
   23.445    1.1761
   23.610    1.3867
   23.775    1.2463
   23.940    1.1585
   24.105    0.9479
   24.270    1.1585
   24.435    1.3691
   24.600    1.1761
   24.765    1.3691
   24.930    1.0883
   25.095    1.1058
   25.260    1.1585
   25.425    1.2463
   25.590    1.1410
   25.755    1.6324
   25.920    1.1058
   26.085    1.1410
   26.250    1.2989
   26.415    1.5271
   26.580    1.0181
   26.745    1.1234
   26.910    1.1058
   27.075    1.1936
   27.240    0.9479
   27.405    1.0883
   27.570    1.0883
   27.735    1.1234
   27.900    1.0005
   28.065    1.4920
   28.230    0.9303
   28.395    1.1410
   28.560    1.1234
   28.725    0.9128
   28.890    1.1936
   29.055    1.0707
   29.220    1.1058
   29.385    1.0356
   29.550    1.1058
   29.715    0.8952
   29.880    1.1058
   30.045    1.0707
   30.210    0.8952
   30.375    0.8777
   30.540    1.0356
   30.705    1.3165
   30.870    0.9303
   31.035    0.9128
   31.200    0.9128
   31.365    0.9303
   31.530    1.1410
   31.695    1.0005
   31.860    1.0707
   32.025    0.9128
   32.190    0.9830
   32.355    1.0532
   32.520    0.8425
   32.685    1.0532
   32.850    1.0356
   33.015    0.9128
   33.180    0.9654
   33.345    0.8250
   33.510    0.8074
   33.675    0.8250
   33.840    1.2112
   34.005    0.8952
   34.170    0.9128
   34.335    0.8952
   34.500    0.9128
   34.665    0.7723
   34.830    0.9479
   34.995    0.7899
   35.160    0.7548
   35.325    0.8601
   35.490    0.8074
   35.655    0.7372
   35.820    0.8777
   35.985    0.6495
   36.150    0.8074
   36.315    0.8601
   36.480    0.9128
   36.645    0.7723
   36.810    0.7021
   36.975    0.7021
   37.140    0.8250
   37.305    0.7548
   37.470    0.7021
   37.635    0.6670
   37.800    0.7548
   37.965    0.7197
   38.130    0.7548
   38.295    0.6846
   38.460    0.7197
   38.625    0.7021
   38.790    0.7021
   38.955    0.7548
   39.120    0.6144
   39.285    0.5968
   39.450    0.6670
   39.615    0.7021
   39.780    0.9128
   39.945    0.6319
   40.110    0.7723
   40.275    0.5617
   40.440    0.7723
   40.605    0.6846
   40.770    0.8250
   40.935    0.6319
   41.100    0.6670
   41.265    0.7548
   41.430    0.6144
   41.595    0.6495
   41.760    0.6319
   41.925    0.6319
   42.090    0.7723
   42.255    0.5793
   42.420    0.5968
   42.585    0.6846
   42.750    0.6144
   42.915    0.7548
   43.080    0.7723
   43.245    0.8425
   43.410    0.7197
   43.575    0.7372
   43.740    0.7197
   43.905    0.5793
   44.070    0.6144
   44.235    0.5617
   44.400    0.8250
   44.565    0.5617
   44.730    0.6144
   44.895    0.6670
   45.060    0.7899
   45.225    0.6495
   45.390    0.5968
   45.555    0.8074
   45.720    0.6846
   45.885    0.6319
   46.050    0.5968
   46.215    0.8601
   46.380    0.5968
   46.545    0.5793
   46.710    0.7372
   46.875    0.5968
   47.040    0.7372
   47.205    0.7021
   47.370    0.9128
   47.535    0.5266
   47.700    0.6495
   47.865    0.8601
   48.030    0.6670
   48.195    0.5793
   48.360    0.7899
   48.525    0.7197
   48.690    0.6144
   48.855    0.5090
   49.020    0.6670
   49.185    0.7548
   49.350    0.6670
   49.515    0.4739
   49.680    0.6319
   49.845    0.5793
   49.980    0.7197