File: data/MOCOF-1/PXRD/PXRD_KE-321E_Cu-Ka1_capillary-1mm_3s-deg.xyd
    1.500   10.8829
    1.665    9.5489
    1.830    8.1271
    1.995    7.1792
    2.160    6.5298
    2.325    6.2665
    2.490    6.0207
    2.655    5.7750
    2.820    5.7399
    2.985    5.3361
    3.150    5.1957
    3.315    5.7223
    3.480    5.3186
    3.645    6.0383
    3.810    7.0037
    3.975    5.7223
    4.140    5.5117
    4.305    5.3712
    4.470    5.2308
    4.635    4.9851
    4.800    5.1957
    4.965    4.9324
    5.130    5.3361
    5.295    5.6521
    5.460    5.2133
    5.625    5.0377
    5.790    5.2835
    5.955    5.3186
    6.120    5.0377
    6.285    5.5117
    6.450    5.6872
    6.615    5.3537
    6.780    5.5819
    6.945    5.6521
    7.110    5.7223
    7.275    5.7574
    7.440    5.7223
    7.605    6.3367
    7.770    5.7048
    7.935    5.6697
    8.100    5.7399
    8.265    6.1611
    8.430    5.8978
    8.595    6.0207
    8.760    6.1962
    8.925    6.5298
    9.090    5.7750
    9.255    6.2138
    9.420    6.1611
    9.585    6.1260
    9.750    6.3191
    9.915    6.3893
   10.080    6.4946
   10.245    6.5298
   10.410    5.7048
   10.575    6.5649
   10.740    6.0909
   10.905    6.2665
   11.070    6.0207
   11.235    5.9856
   11.400    5.9329
   11.565    6.1260
   11.730    5.4415
   11.895    5.6345
   12.060    5.8276
   12.225    5.4415
   12.390    5.5643
   12.555    5.0728
   12.720    5.3537
   12.885    5.4239
   13.050    5.3010
   13.215    5.4766
   13.380    5.3010
   13.545    5.1782
   13.710    4.8973
   13.875    5.2308
   14.040    5.4064
   14.205    5.2308
   14.370    5.2835
   14.535    5.3186
   14.700    5.2659
   14.865    5.1782
   15.030    5.5468
   15.195    5.1606
   15.360    4.6867
   15.525    5.5468
   15.690    5.2484
   15.855    5.3712
   16.020    5.4415
   16.185    5.3186
   16.350    5.3010
   16.515    5.4064
   16.680    5.2484
   16.845    5.4590
   17.010    5.5292
   17.175    5.6872
   17.340    5.1255
   17.505    5.6170
   17.670    5.3010
   17.835    5.2133
   18.000    4.7569
   18.165    5.5643
   18.330    4.9324
   18.495    5.3537
   18.660    5.2835
   18.825    5.0728
   18.990    5.1782
   19.155    5.1255
   19.320    5.1606
   19.485    5.1431
   19.650    4.8447
   19.815    5.6170
   19.980    5.0904
   20.145    5.2133
   20.310    5.3186
   20.475    4.7569
   20.640    4.8798
   20.805    5.2484
   20.970    5.1782
   21.135    5.1080
   21.300    5.5819
   21.465    5.6697
   21.630    5.9154
   21.795    5.1957
   21.960    5.4239
   22.125    5.8276
   22.290    5.3888
   22.455    5.3361
   22.620    6.3016
   22.785    5.1255
   22.950    5.4766
   23.115    5.2484
   23.280    5.8101
   23.445    6.0207
   23.610    5.6697
   23.775    6.0207
   23.940    5.1782
   24.105    5.4239
   24.270    5.0553
   24.435    5.7223
   24.600    5.8101
   24.765    5.0904
   24.930    5.5292
   25.095    5.2659
   25.260    5.5292
   25.425    5.1606
   25.590    5.1782
   25.755    5.9154
   25.920    5.0553
   26.085    5.5468
   26.250    5.4239
   26.415    5.5468
   26.580    5.5643
   26.745    4.8095
   26.910    4.9675
   27.075    5.0202
   27.240    5.6170
   27.405    5.3888
   27.570    4.9500
   27.735    5.3361
   27.900    5.4941
   28.065    5.1782
   28.230    5.1957
   28.395    4.8973
   28.560    5.2659
   28.725    4.9675
   28.890    4.9851
   29.055    5.1255
   29.220    5.1080
   29.385    4.5638
   29.550    4.7920
   29.715    4.7920
   29.880    4.7042
   30.045    4.6867
   30.210    4.7920
   30.375    4.4585
   30.540    4.5463
   30.705    4.4234
   30.870    4.9851
   31.035    4.8622
   31.200    4.7569
   31.365    4.7218
   31.530    4.5111
   31.695    4.5287
   31.860    4.5111
   32.025    4.5287
   32.190    4.4936
   32.355    4.2303
   32.520    4.3005
   32.685    4.7042
   32.850    4.2478
   33.015    4.9324
   33.180    4.3532
   33.345    4.4409
   33.510    4.2127
   33.675    4.2654
   33.840    4.2127
   34.005    4.3181
   34.170    3.8090
   34.335    4.1074
   34.500    4.1952
   34.665    4.0548
   34.830    4.3005
   34.995    4.3356
   35.160    3.9494
   35.325    4.3181
   35.490    4.0372
   35.655    4.0723
   35.820    3.7037
   35.985    4.0723
   36.150    4.4585
   36.315    4.2303
   36.480    3.9670
   36.645    3.8617
   36.810    3.9846
   36.975    4.0723
   37.140    3.9670
   37.305    4.1425
   37.470    4.4058
   37.635    4.1074
   37.800    4.0372
   37.965    4.1074
   38.130    4.0899
   38.295    3.9846
   38.460    4.3356
   38.625    4.1074
   38.790    4.0372
   38.955    3.9494
   39.120    4.0197
   39.285    4.1250
   39.450    4.1250
   39.615    4.1601
   39.780    4.1952
   39.945    4.3356
   40.110    4.1776
   40.275    3.8441
   40.440    4.1250
   40.605    3.8617
   40.770    4.0548
   40.935    3.9494
   41.100    3.8090
   41.265    4.0899
   41.430    4.0723
   41.595    4.1425
   41.760    4.1074
   41.925    4.1074
   42.090    3.8617
   42.255    4.2654
   42.420    3.9319
   42.585    4.2303
   42.750    4.3883
   42.915    4.0197
   43.080    3.9670
   43.245    4.0548
   43.410    4.0548
   43.575    3.8968
   43.740    3.9143
   43.905    4.1425
   44.070    3.7037
   44.235    4.4058
   44.400    4.1074
   44.565    3.7915
   44.730    3.9670
   44.895    4.2830
   45.060    3.8441
   45.225    3.9494
   45.390    3.7037
   45.555    4.0723
   45.720    4.1952
   45.885    3.8617
   46.050    3.4580
   46.215    3.7739
   46.380    3.9494
   46.545    3.5282
   46.710    3.8792
   46.875    3.8090
   47.040    3.5282
   47.205    3.8968
   47.370    4.1250
   47.535    3.7915
   47.700    3.6862
   47.865    3.7564
   48.030    3.5106
   48.195    4.0899
   48.360    4.0197
   48.525    3.8617
   48.690    3.7388
   48.855    3.6686
   49.020    3.8617
   49.185    3.7388
   49.350    3.9494
   49.515    3.9319
   49.680    3.7564
   49.845    3.9670
   49.980    4.1425