File: data/MOCOF-1/PXRD/PXRD_KE-318_Cu-Ka1_capillary-1mm_3s-deg.xyd
    1.500   14.6919
    1.635   13.3052
    1.770   12.7611
    1.905   11.0585
    2.040   10.7425
    2.175    9.8999
    2.310   10.1281
    2.445   10.0755
    2.580   10.5670
    2.715   11.0058
    2.850   12.1819
    2.985   13.7967
    3.120   16.3946
    3.255   20.6775
    3.390   26.8562
    3.525   37.9147
    3.660   63.4720
    3.795  109.2680
    3.930    9.2154
    4.065    5.6521
    4.200    5.0553
    4.335    4.9500
    4.470    5.3186
    4.605    5.0904
    4.740    5.9154
    4.875    5.8452
    5.010    7.3723
    5.145    9.1101
    5.280   14.5691
    5.415   14.8850
    5.550    4.5287
    5.685    4.1425
    5.820    4.3356
    5.955    3.6510
    6.090    4.1952
    6.225    4.3181
    6.360    4.3883
    6.495    5.4766
    6.630    6.9686
    6.765    3.5282
    6.900    3.9143
    7.035    3.6159
    7.170    3.6159
    7.305    4.1250
    7.440    4.5638
    7.575    6.4069
    7.710    4.1074
    7.845    3.6159
    7.980    3.7213
    8.115    3.5633
    8.250    3.5984
    8.385    4.4585
    8.520    6.1436
    8.655    3.4931
    8.790    3.7915
    8.925    3.6335
    9.060    4.1074
    9.195    5.5468
    9.330   10.1808
    9.465    4.0197
    9.600    3.6159
    9.735    3.7213
    9.870    3.8792
   10.005    5.5117
   10.140    7.8462
   10.275    3.6862
   10.410    3.5106
   10.545    3.7213
   10.680    4.0021
   10.815    6.4595
   10.950    3.2298
   11.085    3.4755
   11.220    3.3351
   11.355    3.7213
   11.490    5.3888
   11.625    3.2649
   11.760    3.2824
   11.895    3.3877
   12.030    3.9143
   12.165    3.7739
   12.300    3.0718
   12.435    3.2649
   12.570    3.7213
   12.705    5.0202
   12.840    3.2824
   12.975    3.3351
   13.110    3.2824
   13.245    3.8617
   13.380    3.6510
   13.515    3.1069
   13.650    3.5282
   13.785    5.5468
   13.920    3.4053
   14.055    2.8787
   14.190    3.1069
   14.325    2.9314
   14.460    3.0718
   14.595    3.3702
   14.730    2.9665
   14.865    3.8266
   15.000    2.9665
   15.135    2.9138
   15.270    2.8963
   15.405    3.0016
   15.540    2.9138
   15.675    2.8260
   15.810    3.7915
   15.945    3.2473
   16.080    2.6856
   16.215    3.1596
   16.350    3.3000
   16.485    2.8963
   16.620    3.4053
   16.755    4.1776
   16.890    3.0542
   17.025    2.9665
   17.160    3.5984
   17.295    2.8787
   17.430    2.9665
   17.565    3.2649
   17.700    2.8436
   17.835    3.0367
   17.970    2.9665
   18.105    3.3000
   18.240    3.4404
   18.375    3.3877
   18.510    3.1069
   18.645    3.0718
   18.780    3.1947
   18.915    3.4755
   19.050    3.0191
   19.185    3.6862
   19.320    3.1596
   19.455    3.1947
   19.590    3.1245
   19.725    3.2122
   19.860    3.2122
   19.995    4.0197
   20.130    3.4931
   20.265    3.0191
   20.400    3.1245
   20.535    3.2473
   20.670    3.6335
   20.805    3.3877
   20.940    3.2473
   21.075    3.3526
   21.210    3.0542
   21.345    3.4931
   21.480    3.6159
   21.615    3.2649
   21.750    3.3000
   21.885    3.3175
   22.020    3.3526
   22.155    3.8266
   22.290    3.5106
   22.425    4.2478
   22.560    4.1952
   22.695    3.8968
   22.830    2.9840
   22.965    3.1245
   23.100    3.2473
   23.235    3.5633
   23.370    3.2649
   23.505    3.9494
   23.640    3.1771
   23.775    3.4229
   23.910    3.3175
   24.045    3.1245
   24.180    3.1947
   24.315    2.9138
   24.450    3.3526
   24.585    3.0893
   24.720    2.9314
   24.855    2.9665
   24.990    3.1069
   25.125    3.3175
   25.260    3.7037
   25.395    3.8968
   25.530    2.9840
   25.665    2.9314
   25.800    3.6335
   25.935    2.9665
   26.070    3.4931
   26.205    3.2298
   26.340    3.2122
   26.475    3.2824
   26.610    2.8085
   26.745    3.1245
   26.880    3.0016
   27.015    2.9314
   27.150    3.0893
   27.285    3.0367
   27.420    2.9665
   27.555    2.7558
   27.690    3.3702
   27.825    3.1947
   27.960    3.5457
   28.095    2.9489
   28.230    2.5452
   28.365    2.8787
   28.500    3.0542
   28.635    3.1245
   28.770    3.3351
   28.905    2.7032
   29.040    3.0367
   29.175    2.8085
   29.310    2.8963
   29.445    3.1947
   29.580    3.0718
   29.715    2.8436
   29.850    2.8787
   29.985    2.6330
   30.120    2.8085
   30.255    2.5276
   30.390    2.7032
   30.525    3.0016
   30.660    2.4574
   30.795    2.5276
   30.930    2.5979
   31.065    2.8787
   31.200    3.0016
   31.335    2.6505
   31.470    2.5979
   31.605    2.7909
   31.740    2.4574
   31.875    2.5803
   32.010    2.2819
   32.145    2.5276
   32.280    2.6681
   32.415    2.4574
   32.550    2.1941
   32.685    2.5276
   32.820    2.3697
   32.955    2.5452
   33.090    2.8260
   33.225    2.3170
   33.360    2.2819
   33.495    2.3346
   33.630    2.3697
   33.765    2.5276
   33.900    2.4574
   34.035    2.5628
   34.170    2.7032
   34.305    2.1941
   34.440    2.2995
   34.575    1.9835
   34.710    2.2117
   34.845    2.0537
   34.980    2.4223
   35.115    2.3170
   35.250    2.1941
   35.385    2.4048
   35.520    2.1766
   35.655    2.0713
   35.790    2.4048
   35.925    2.2292
   36.060    2.0713
   36.195    2.0713
   36.330    2.0011
   36.465    1.9659
   36.600    2.0713
   36.735    2.2819
   36.870    2.0888
   37.005    1.9659
   37.140    2.1941
   37.275    2.2117
   37.410    2.4399
   37.545    2.0362
   37.680    2.0186
   37.815    1.7553
   37.950    2.1590
   38.085    1.9659
   38.220    1.9659
   38.355    1.8957
   38.490    1.9659
   38.625    2.1941
   38.760    2.3346
   38.895    1.8606
   39.030    2.1415
   39.165    2.0888
   39.300    2.0888
   39.435    2.2643
   39.570    1.7904
   39.705    2.0011
   39.840    2.1941
   39.975    1.9659
   39.990    2.0362