File: data/MOCOF-1/PXRD/PXRD_KE-289-3_Cu-Ka1_film-3mm_3s-deg_no_collimeter.xyd
    1.500   23.9600
    1.635   21.4323
    1.770   18.5712
    1.905   17.6760
    2.040   14.7797
    2.175   14.2707
    2.310   13.0771
    2.445   12.2345
    2.580   12.0239
    2.715   11.6026
    2.850   11.7606
    2.985   11.1813
    3.120   11.1638
    3.255   12.9893
    3.390   13.9723
    3.525   18.3605
    3.660   27.8392
    3.795   59.2593
    3.930   28.3483
    4.065   10.1106
    4.200    9.5313
    4.335    9.8824
    4.470    9.3382
    4.605    9.3909
    4.740    8.7941
    4.875    9.7244
    5.010    9.4611
    5.145   11.2515
    5.280   12.8840
    5.415   17.9568
    5.550   13.9196
    5.685   11.4271
    5.820   10.0228
    5.955    9.8473
    6.090    8.8819
    6.225    9.1101
    6.360    8.5835
    6.495    8.7765
    6.630    8.7590
    6.765    9.1452
    6.900    7.4776
    7.035    7.4074
    7.170    7.3021
    7.305    7.1266
    7.440    7.2845
    7.575    7.1266
    7.710    9.2680
    7.845    8.1271
    7.980    6.6000
    8.115    6.4595
    8.250    6.3718
    8.385    6.0032
    8.520    6.3718
    8.655    6.1085
    8.790    6.5298
    8.925    5.7399
    9.060    5.8101
    9.195    6.4595
    9.330    5.9505
    9.465    8.2500
    9.600    9.3031
    9.735    6.0383
    9.870    5.9681
   10.005    6.2840
   10.140    6.3542
   10.275    7.1441
   10.410    6.8282
   10.545    5.7574
   10.680    6.0032
   10.815    7.0915
   10.950    6.8808
   11.085    7.0739
   11.220    6.5473
   11.355    6.0909
   11.490    6.1085
   11.625    6.9510
   11.760    7.2494
   11.895    5.9856
   12.030    5.8101
   12.165    6.2313
   12.300    6.1611
   12.435    5.8452
   12.570    5.9329
   12.705    5.9681
   12.840    6.2489
   12.975    6.8808
   13.110    5.8276
   13.245    5.7223
   13.380    5.8627
   13.515    6.2313
   13.650    5.9329
   13.785    5.8803
   13.920    6.7579
   14.055    6.0383
   14.190    6.0734
   14.325    6.0383
   14.460    6.4244
   14.595    6.1787
   14.730    5.3712
   14.865    5.6170
   15.000    5.5468
   15.135    6.3367
   15.270    5.9329
   15.405    5.5643
   15.540    5.7750
   15.675    5.4415
   15.810    5.8276
   15.945    5.6521
   16.080    5.8276
   16.215    5.5994
   16.350    5.9154
   16.485    5.6872
   16.620    6.0032
   16.755    5.4415
   16.890    5.6170
   17.025    6.3893
   17.160    5.5117
   17.295    5.7048
   17.430    6.0032
   17.565    5.7925
   17.700    5.5117
   17.835    5.6170
   17.970    5.2659
   18.105    5.6345
   18.240    5.6697
   18.375    5.9154
   18.510    5.4941
   18.645    4.8447
   18.780    5.5117
   18.915    5.3010
   19.050    5.3186
   19.185    5.8627
   19.320    5.5117
   19.455    5.5117
   19.590    5.5117
   19.725    5.1255
   19.860    5.1782
   19.995    5.2835
   20.130    4.8095
   20.265    5.3537
   20.400    6.3016
   20.535    5.1957
   20.670    5.3186
   20.805    5.1080
   20.940    5.4766
   21.075    4.5989
   21.210    4.5287
   21.345    5.1606
   21.480    5.0202
   21.615    5.1080
   21.750    4.8447
   21.885    5.1080
   22.020    4.3883
   22.155    5.0026
   22.290    4.7569
   22.425    4.8447
   22.560    5.5468
   22.695    5.2308
   22.830    5.0026
   22.965    5.4590
   23.100    5.0202
   23.235    5.0377
   23.370    4.4409
   23.505    5.0904
   23.640    4.4936
   23.775    4.5287
   23.910    4.8622
   24.045    4.5989
   24.180    4.4585
   24.315    4.3883
   24.450    4.4234
   24.585    4.7393
   24.720    4.7920
   24.855    4.5814
   24.990    4.7393
   25.125    4.5287
   25.260    4.1601
   25.395    4.4409
   25.530    4.7218
   25.665    4.2830
   25.800    4.5287
   25.935    4.3883
   26.070    4.1776
   26.205    4.1776
   26.340    4.3005
   26.475    4.4058
   26.610    4.0899
   26.745    4.1425
   26.880    3.8441
   27.015    4.4585
   27.150    3.7564
   27.285    3.8090
   27.420    3.8266
   27.555    4.2478
   27.690    3.8968
   27.825    3.6686
   27.960    4.1074
   28.095    4.2303
   28.230    4.4234
   28.365    4.2303
   28.500    3.8968
   28.635    3.6686
   28.770    4.3707
   28.905    3.5282
   29.040    3.8968
   29.175    3.8441
   29.310    3.7037
   29.445    3.5282
   29.580    3.9846
   29.715    3.4580
   29.850    3.4229
   29.985    3.5106
   30.120    3.1596
   30.255    3.2649
   30.390    3.4229
   30.525    3.4053
   30.660    3.4580
   30.795    3.5984
   30.930    3.5106
   31.065    3.0367
   31.200    3.5633
   31.335    3.0016
   31.470    3.2473
   31.605    2.9489
   31.740    4.2303
   31.875    3.5633
   32.010    3.1420
   32.145    3.1420
   32.280    2.9489
   32.415    3.3877
   32.550    2.8612
   32.685    3.1420
   32.820    3.2298
   32.955    3.2824
   33.090    3.2649
   33.225    3.1245
   33.360    3.0191
   33.495    3.1947
   33.630    3.0016
   33.765    3.3175
   33.900    3.3702
   34.035    3.0542
   34.170    2.9314
   34.305    2.7909
   34.440    3.0367
   34.575    2.8085
   34.710    2.8787
   34.845    2.8436
   34.980    2.6154
   35.115    2.6154
   35.250    2.8787
   35.385    2.7558
   35.520    2.7207
   35.655    2.9138
   35.790    2.8085
   35.925    3.0542
   36.060    2.8612
   36.195    2.7734
   36.330    2.8963
   36.465    3.0016
   36.600    2.9665
   36.735    2.9314
   36.870    2.9489
   37.005    2.5803
   37.140    3.1245
   37.275    2.8436
   37.410    3.0542
   37.545    2.5276
   37.680    2.6856
   37.815    2.8787
   37.950    3.0191
   38.085    2.6330
   38.220    2.6856
   38.355    2.3521
   38.490    3.4580
   38.625    2.7207
   38.760    2.7909
   38.895    2.8612
   39.030    2.4574
   39.165    2.9489
   39.300    2.9314
   39.435    2.7207
   39.570    2.7383
   39.705    2.6681
   39.840    2.5276
   39.975    2.6505
   39.990    3.1069