File: data/MOCOF-1/PXRD/PXRD_KE-305-2A_Cu-Ka1_capillary-1mm_3s-deg.xyd
    1.500   21.1164
    1.635   19.3611
    1.770   17.5531
    1.905   15.1308
    2.040   14.1829
    2.175   13.5861
    2.310   12.7611
    2.445   13.0420
    2.580   12.7962
    2.715   13.8669
    2.850   14.9728
    2.985   16.7106
    3.120   18.3956
    3.255   21.2744
    3.390   26.3999
    3.525   34.8429
    3.660   53.3439
    3.795  112.6909
    3.930   21.2217
    4.065    9.0047
    4.200    8.5484
    4.335    7.7234
    4.470    7.4074
    4.605    6.8808
    4.740    7.9516
    4.875    7.5654
    5.010    8.0569
    5.145    9.6542
    5.280   11.5675
    5.415   19.0451
    5.550    8.7590
    5.685    6.9861
    5.820    6.5122
    5.955    6.9686
    6.090    6.6877
    6.225    6.8808
    6.360    7.1441
    6.495    7.3547
    6.630   10.6196
    6.765   10.0755
    6.900    6.5473
    7.035    6.1436
    7.170    5.9329
    7.305    6.5298
    7.440    6.6526
    7.575    7.5478
    7.710    9.5138
    7.845    6.7228
    7.980    5.9329
    8.115    5.7048
    8.250    6.2313
    8.385    5.8978
    8.520    6.8633
    8.655    6.8633
    8.790    5.9329
    8.925    5.9329
    9.060    6.2489
    9.195    7.0037
    9.330    9.0925
    9.465   17.0967
    9.600   11.5675
    9.735    6.5649
    9.870    6.4244
   10.005    6.9686
   10.140    7.8989
   10.275   14.6393
   10.410    6.4595
   10.545    5.8803
   10.680    6.0734
   10.815    6.8984
   10.950    8.7239
   11.085    7.6707
   11.220    5.7574
   11.355    5.8803
   11.490    6.4595
   11.625    9.6542
   11.760    7.8287
   11.895    6.2138
   12.030    5.1782
   12.165    5.4590
   12.300    6.6702
   12.435    6.2313
   12.570    5.6872
   12.705    5.6170
   12.840    7.7936
   12.975   10.3388
   13.110    6.1787
   13.245    5.2835
   13.380    6.1436
   13.515    8.1446
   13.650    5.4064
   13.785    5.5643
   13.920    6.0207
   14.055    7.7760
   14.190    5.5292
   14.325    5.3888
   14.460    5.5994
   14.595    5.2133
   14.730    5.4766
   14.865    5.4064
   15.000    6.1436
   15.135    6.7053
   15.270    5.4064
   15.405    5.5643
   15.540    5.3361
   15.675    5.4766
   15.810    5.7925
   15.945    5.2484
   16.080    6.1611
   16.215    6.1260
   16.350    5.7223
   16.485    5.6345
   16.620    8.0569
   16.755    5.9505
   16.890    6.5473
   17.025    9.0925
   17.160    6.0909
   17.295    5.9505
   17.430    5.8978
   17.565    5.5994
   17.700    5.7750
   17.835    5.7925
   17.970    6.7053
   18.105    5.7223
   18.240    5.7574
   18.375    6.9335
   18.510    5.7750
   18.645    5.7399
   18.780    5.3537
   18.915    5.8452
   19.050    5.5468
   19.185    5.9856
   19.320    5.8276
   19.455    5.8101
   19.590    6.8808
   19.725    5.7048
   19.860    5.9681
   19.995    6.0207
   20.130    5.5994
   20.265    6.7579
   20.400    8.2149
   20.535    6.0909
   20.670    6.1260
   20.805    6.3718
   20.940    5.7574
   21.075    6.1085
   21.210    5.5819
   21.345    5.4766
   21.480    6.1611
   21.615    6.0909
   21.750    5.9856
   21.885    7.3372
   22.020    6.4771
   22.155    7.1792
   22.290    6.3893
   22.425    6.8633
   22.560   11.0409
   22.695    6.3718
   22.830    7.7585
   22.965    9.1452
   23.100    6.5824
   23.235    7.2845
   23.370    6.2665
   23.505    6.7404
   23.640    6.5824
   23.775    6.4771
   23.910    7.6005
   24.045    6.0909
   24.180    5.6697
   24.315    6.4771
   24.450    6.0207
   24.585    6.1962
   24.720    6.2840
   24.855    5.9681
   24.990    6.0734
   25.125    6.4069
   25.260    6.6000
   25.395    5.9856
   25.530    6.7228
   25.665    6.2840
   25.800    8.7239
   25.935    6.2489
   26.070    6.1260
   26.205    6.1611
   26.340    6.3718
   26.475    6.4420
   26.610    6.1787
   26.745    5.4590
   26.880    6.1085
   27.015    6.8808
   27.150    6.0383
   27.285    5.6345
   27.420    5.7399
   27.555    7.0739
   27.690    5.9856
   27.825    5.6345
   27.960    5.8627
   28.095    6.2138
   28.230    6.6175
   28.365    6.5473
   28.500    6.6526
   28.635    5.5994
   28.770    5.4415
   28.905    5.0377
   29.040    5.8803
   29.175    5.3712
   29.310    5.9329
   29.445    5.4766
   29.580    5.4941
   29.715    5.3186
   29.850    5.9856
   29.985    5.3361
   30.120    5.5292
   30.255    4.8622
   30.390    5.7048
   30.525    5.4064
   30.660    5.6345
   30.795    5.4766
   30.930    5.0553
   31.065    4.8095
   31.200    4.8095
   31.335    5.4941
   31.470    5.3361
   31.605    5.0202
   31.740    5.3010
   31.875    5.6345
   32.010    4.9500
   32.145    5.1606
   32.280    5.2308
   32.415    4.8095
   32.550    5.1431
   32.685    4.4409
   32.820    5.0377
   32.955    4.6340
   33.090    5.1957
   33.225    4.7218
   33.360    4.8798
   33.495    5.4766
   33.630    4.7218
   33.765    4.4936
   33.900    5.3010
   34.035    4.3181
   34.170    4.5814
   34.305    4.2654
   34.440    4.6340
   34.575    4.5463
   34.710    4.5111
   34.845    4.7569
   34.980    4.3005
   35.115    4.7042
   35.250    5.0026
   35.385    4.5287
   35.520    4.2478
   35.655    4.6340
   35.790    3.9670
   35.925    4.6165
   36.060    3.9319
   36.195    4.5287
   36.330    4.1776
   36.465    4.4936
   36.600    4.5814
   36.735    4.4760
   36.870    4.2303
   37.005    4.2830
   37.140    3.6686
   37.275    4.0548
   37.410    4.3883
   37.545    3.6686
   37.680    4.1250
   37.815    4.0723
   37.950    3.8617
   38.085    4.2303
   38.220    4.1601
   38.355    4.3707
   38.490    4.5463
   38.625    4.0021
   38.760    3.9143
   38.895    3.8266
   39.030    3.9670
   39.165    4.0021
   39.300    4.2830
   39.435    3.9494
   39.570    3.8266
   39.705    4.0372
   39.840    4.1952
   39.975    4.1250
   39.990    3.8792