File: data/MOCOF-1/PXRD/PXRD_KE-262_Co-Ka1_film-3mm_3s-deg.xyd
    1.500    4.8154
    1.635    4.0485
    1.770    3.1746
    1.905    2.9249
    2.040    2.4790
    2.175    2.2294
    2.310    2.0867
    2.445    1.9262
    2.580    1.8013
    2.715    1.8548
    2.850    1.6943
    2.985    1.5695
    3.120    1.4803
    3.255    1.4446
    3.390    1.7300
    3.525    1.4981
    3.660    1.4625
    3.795    1.5338
    3.930    1.5516
    4.065    1.4625
    4.200    1.4090
    4.335    1.3376
    4.470    1.2128
    4.605    1.2128
    4.740    1.2484
    4.875    1.4803
    5.010    1.3198
    5.145    1.3554
    5.280    1.2663
    5.415    1.5695
    5.550    1.4090
    5.685    1.4090
    5.820    1.5695
    5.955    1.6408
    6.090    1.7300
    6.225    1.5695
    6.360    1.8905
    6.495    1.9975
    6.630    1.6230
    6.765    1.7657
    6.900    1.5873
    7.035    1.7121
    7.170    1.3019
    7.305    1.1949
    7.440    1.2663
    7.575    1.3019
    7.710    1.3376
    7.845    1.3019
    7.980    1.0879
    8.115    1.1593
    8.250    1.3376
    8.385    1.0344
    8.520    0.9809
    8.655    1.1771
    8.790    0.8561
    8.925    1.0166
    9.060    0.9631
    9.195    0.9988
    9.330    0.8917
    9.465    0.8917
    9.600    1.1414
    9.735    0.9274
    9.870    0.8561
   10.005    0.6777
   10.140    0.8561
   10.275    0.8917
   10.410    0.9631
   10.545    0.8561
   10.680    0.8739
   10.815    0.8204
   10.950    0.8561
   11.085    0.8917
   11.220    0.8026
   11.355    0.7669
   11.490    0.8204
   11.625    0.6599
   11.760    1.0344
   11.895    0.8739
   12.030    0.8026
   12.165    0.6777
   12.300    0.9274
   12.435    1.0166
   12.570    1.0344
   12.705    0.9274
   12.840    0.8739
   12.975    0.8204
   13.110    0.9096
   13.245    0.9452
   13.380    1.0166
   13.515    0.8204
   13.650    0.9274
   13.785    0.9274
   13.920    1.0879
   14.055    0.8739
   14.190    0.7847
   14.325    0.7847
   14.460    0.8204
   14.595    0.8739
   14.730    0.7134
   14.865    0.8561
   15.000    0.6956
   15.135    0.8739
   15.270    0.7134
   15.405    0.8026
   15.540    0.7669
   15.675    0.8382
   15.810    0.8561
   15.945    0.6599
   16.080    0.9096
   16.215    0.8917
   16.350    0.7847
   16.485    0.9096
   16.620    0.8204
   16.755    0.7669
   16.890    0.8739
   17.025    0.8917
   17.160    0.7312
   17.295    0.8382
   17.430    0.8026
   17.565    0.8382
   17.700    0.8739
   17.835    0.5707
   17.970    0.5886
   18.105    0.8739
   18.240    0.8739
   18.375    0.6777
   18.510    0.8382
   18.645    0.7134
   18.780    1.1414
   18.915    0.7847
   19.050    0.8204
   19.185    0.9452
   19.320    0.8561
   19.455    0.7669
   19.590    0.6421
   19.725    0.6956
   19.860    0.7669
   19.995    0.8026
   20.130    0.6242
   20.265    0.8739
   20.400    0.9096
   20.535    0.6956
   20.670    0.8026
   20.805    0.7847
   20.940    0.9452
   21.075    0.8204
   21.210    0.7847
   21.345    0.9631
   21.480    0.6242
   21.615    0.5350
   21.750    0.7491
   21.885    0.6777
   22.020    0.6777
   22.155    0.6599
   22.290    0.7847
   22.425    0.7312
   22.560    0.5529
   22.695    0.7491
   22.830    0.6956
   22.965    0.5172
   23.100    0.7669
   23.235    0.7669
   23.370    0.7669
   23.505    0.7134
   23.640    0.6956
   23.775    0.7134
   23.910    0.8026
   24.045    0.8026
   24.180    0.6599
   24.315    0.6421
   24.450    0.7312
   24.585    0.6421
   24.720    0.5529
   24.855    0.6064
   24.990    0.6421
   25.125    0.7491
   25.260    0.8026
   25.395    0.7847
   25.530    0.4102
   25.665    0.6421
   25.800    0.4994
   25.935    0.6242
   26.070    0.6242
   26.205    0.6777
   26.340    0.6421
   26.475    0.6956
   26.610    0.7134
   26.745    0.5886
   26.880    0.6956
   27.015    0.7312
   27.150    0.4637
   27.285    0.6421
   27.420    0.5350
   27.555    0.5707
   27.690    0.6777
   27.825    0.6064
   27.960    0.5529
   28.095    0.5707
   28.230    0.5172
   28.365    0.5886
   28.500    0.6777
   28.635    0.4637
   28.770    0.4637
   28.905    0.5172
   29.040    0.6599
   29.175    0.5529
   29.310    0.8026
   29.445    0.6599
   29.580    0.3745
   29.715    0.5172
   29.850    0.6242
   29.985    0.4994
   30.120    0.3924
   30.255    0.5350
   30.390    0.3924
   30.525    0.5350
   30.660    0.5350
   30.795    0.6064
   30.930    0.4994
   31.065    0.4459
   31.200    0.4280
   31.335    0.4815
   31.470    0.4280
   31.605    0.4637
   31.740    0.4459
   31.875    0.3389
   32.010    0.5350
   32.145    0.5350
   32.280    0.3389
   32.415    0.3745
   32.550    0.3745
   32.685    0.4459
   32.820    0.3745
   32.955    0.4815
   33.090    0.4459
   33.225    0.4815
   33.360    0.4102
   33.495    0.4459
   33.630    0.4459
   33.765    0.4459
   33.900    0.3567
   34.035    0.5172
   34.170    0.4994
   34.305    0.3389
   34.440    0.2140
   34.575    0.3032
   34.710    0.3924
   34.845    0.3210
   34.980    0.3745
   35.115    0.3032
   35.250    0.3567
   35.385    0.2854
   35.520    0.3032
   35.655    0.3567
   35.790    0.2319
   35.925    0.3210
   36.060    0.3567
   36.195    0.3210
   36.330    0.3032
   36.465    0.3389
   36.600    0.3032
   36.735    0.2140
   36.870    0.2319
   37.005    0.3567
   37.140    0.3210
   37.275    0.2140
   37.410    0.1962
   37.545    0.2675
   37.680    0.1962
   37.815    0.2140
   37.950    0.2854
   38.085    0.3567
   38.220    0.2319
   38.355    0.3924
   38.490    0.2497
   38.625    0.1783
   38.760    0.2675
   38.895    0.3032
   39.030    0.2675
   39.165    0.2854
   39.300    0.2675
   39.435    0.3210
   39.570    0.3924
   39.705    0.1783
   39.840    0.2675
   39.975    0.2675
   39.990    0.3032