File: data/MOCOF-1/PXRD/PXRD_KE-119-2PhNO2_Cu-Ka1_capillary-1mm_5s-deg.xyd
    1.500   21.6851
    1.635   19.0100
    1.770   17.2617
    1.905   15.1975
    2.040   14.0179
    2.175   13.7967
    2.310   12.7751
    2.445   12.0063
    2.580   11.9221
    2.715   12.2591
    2.850   12.3012
    2.985   12.4065
    3.120   13.1648
    3.255   14.3655
    3.390   16.6825
    3.525   19.1785
    3.660   25.1290
    3.795   40.0316
    3.930   36.7351
    4.065   10.6688
    4.200    9.4576
    4.335    8.7520
    4.470    8.9731
    4.605    8.2886
    4.740    9.3312
    4.875    9.0890
    5.010    9.2048
    5.145    9.7420
    5.280   11.7957
    5.415   15.0079
    5.550   15.9558
    5.685    8.2886
    5.820    7.8989
    5.955    8.0358
    6.090    8.3307
    6.225    8.1938
    6.360    8.3834
    6.495    9.0258
    6.630    9.5313
    6.765   11.1954
    6.900    8.8257
    7.035    8.5413
    7.170    7.9937
    7.305    7.9726
    7.440    8.3728
    7.575    8.7625
    7.710    9.5735
    7.845    9.6893
    7.980    8.5624
    8.115    8.4255
    8.250    8.3939
    8.385    8.1411
    8.520    8.5203
    8.655    8.7625
    8.790    8.8468
    8.925    8.7520
    9.060    9.2259
    9.195    8.7309
    9.330    9.7314
    9.465   11.3217
    9.600   13.1859
    9.735    9.1838
    9.870    8.7625
   10.005    8.6045
   10.140    9.4365
   10.275    9.9842
   10.410    9.4155
   10.545    8.5519
   10.680    8.9626
   10.815    9.0469
   10.950    9.2364
   11.085   10.1106
   11.220    8.2991
   11.355    8.1411
   11.490    8.2886
   11.625    8.6572
   11.760    9.6156
   11.895    7.7620
   12.030    8.2043
   12.165    7.6672
   12.300    7.6356
   12.435    7.8462
   12.570    7.3934
   12.705    7.7514
   12.840    8.0990
   12.975    9.0153
   13.110    7.6251
   13.245    7.9305
   13.380    7.7936
   13.515    8.2886
   13.650    7.9726
   13.785    7.3723
   13.920    7.3723
   14.055    8.3202
   14.190    7.9516
   14.325    7.5724
   14.460    7.0985
   14.595    7.0985
   14.730    7.3828
   14.865    7.7199
   15.000    7.3196
   15.135    7.4882
   15.270    7.6040
   15.405    7.5829
   15.540    7.8041
   15.675    7.6461
   15.810    7.5303
   15.945    7.2038
   16.080    7.4671
   16.215    7.7514
   16.350    7.5092
   16.485    7.6251
   16.620    7.5829
   16.755    7.9094
   16.890    7.7514
   17.025    7.9831
   17.160    8.0042
   17.295    7.4355
   17.430    7.5092
   17.565    7.4671
   17.700    7.4882
   17.835    7.3302
   17.970    7.4144
   18.105    7.6567
   18.240    7.9200
   18.375    7.4460
   18.510    7.7093
   18.645    7.8146
   18.780    7.3512
   18.915    7.6356
   19.050    8.0042
   19.185    7.6988
   19.320    7.1933
   19.455    7.8357
   19.590    8.2149
   19.725    7.8673
   19.860    7.8146
   19.995    7.6461
   20.130    7.3723
   20.265    7.9726
   20.400    8.5624
   20.535    8.1833
   20.670    7.6777
   20.805    8.0147
   20.940    8.1727
   21.075    7.7199
   21.210    7.6988
   21.345    8.1095
   21.480    7.8778
   21.615    7.8884
   21.750    8.0358
   21.885    8.0569
   22.020    7.7936
   22.155    8.0779
   22.290    7.7199
   22.425    8.1517
   22.560    8.7414
   22.695    8.1833
   22.830    8.0253
   22.965    8.6045
   23.100    7.8884
   23.235    8.2149
   23.370    7.8568
   23.505    7.9094
   23.640    7.8673
   23.775    7.8357
   23.910    8.3412
   24.045    8.1095
   24.180    8.1938
   24.315    7.5197
   24.450    7.6777
   24.585    7.8884
   24.720    7.8462
   24.855    7.6461
   24.990    7.8462
   25.125    7.7514
   25.260    8.0147
   25.395    7.5829
   25.530    7.5619
   25.665    7.4776
   25.800    8.4887
   25.935    7.7409
   26.070    7.7304
   26.205    7.8357
   26.340    7.4460
   26.475    7.5303
   26.610    7.4987
   26.745    7.6145
   26.880    7.6145
   27.015    7.5724
   27.150    7.5935
   27.285    7.6040
   27.420    7.2670
   27.555    7.2459
   27.690    7.4671
   27.825    7.2143
   27.960    7.6883
   28.095    7.1195
   28.230    7.4671
   28.365    7.0037
   28.500    7.2565
   28.635    7.4039
   28.770    7.0142
   28.905    7.3828
   29.040    7.2670
   29.175    7.0669
   29.310    7.3618
   29.445    7.0353
   29.580    6.8668
   29.715    6.8668
   29.850    7.0879
   29.985    6.9616
   30.120    7.0879
   30.255    6.4666
   30.390    7.4144
   30.525    6.2875
   30.660    7.0669
   30.795    7.1090
   30.930    6.7930
   31.065    6.4560
   31.200    6.7509
   31.335    6.7825
   31.470    6.8668
   31.605    6.5192
   31.740    7.0353
   31.875    6.4455
   32.010    7.0142
   32.145    7.2038
   32.280    6.4876
   32.415    6.4771
   32.550    6.3823
   32.685    6.7299
   32.820    6.5087
   32.955    6.7088
   33.090    6.2875
   33.225    6.2033
   33.360    6.1506
   33.495    6.1822
   33.630    6.1611
   33.765    6.5298
   33.900    6.7193
   34.035    6.0979
   34.170    6.3191
   34.305    6.0137
   34.440    6.2665
   34.575    6.7720
   34.710    6.2349
   34.845    6.1085
   34.980    5.8978
   35.115    6.4244
   35.250    6.3296
   35.385    6.1190
   35.520    6.0348
   35.655    6.3718
   35.790    5.9189
   35.925    6.1085
   36.060    5.6977
   36.195    6.1717
   36.330    6.1822
   36.465    5.6767
   36.600    5.9926
   36.735    5.8768
   36.870    6.0137
   37.005    6.0348
   37.140    5.6451
   37.275    6.0137
   37.410    5.4766
   37.545    6.3612
   37.680    5.4976
   37.815    6.1506
   37.950    5.6872
   38.085    5.8452
   38.220    5.7925
   38.355    5.7188
   38.490    5.9400
   38.625    5.7188
   38.760    5.8241
   38.895    6.2559
   39.030    6.0874
   39.165    5.9189
   39.300    6.2665
   39.435    6.2770
   39.570    5.6872
   39.705    6.1085
   39.840    5.7504
   39.975    6.0453
   39.990    6.0558