File: data/MOCOF-1/PXRD/PXRD_KE-132-1-2_Cu-Ka1_film-3mm_5s-deg.xyd
    1.500   28.8889
    1.635   25.9716
    1.770   21.7694
    1.905   20.1790
    2.040   17.1880
    2.175   15.9242
    2.310   15.4292
    2.445   15.4397
    2.580   15.4397
    2.715   16.6825
    2.850   19.5682
    2.985   27.5513
    3.120   40.7899
    3.255   68.7836
    3.390  123.4966
    3.525  101.7062
    3.660   42.4645
    3.795   41.2744
    3.930   51.1954
    4.065   56.2191
    4.200   47.6988
    4.335   29.4576
    4.470   17.3776
    4.605   11.9326
    4.740   10.1632
    4.875    9.4681
    5.010    8.8468
    5.145    8.2464
    5.280    8.4992
    5.415    8.9205
    5.550    8.0990
    5.685    7.8252
    5.820    7.5829
    5.955    7.0985
    6.090    6.4350
    6.225    7.0142
    6.360    6.9932
    6.495    6.6983
    6.630    7.0142
    6.765    9.4471
    6.900   16.6193
    7.035   13.6388
    7.170    7.9621
    7.305    6.8878
    7.440    6.6772
    7.575    6.0032
    7.710    6.2138
    7.845    7.2459
    7.980    8.0674
    8.115    8.4360
    8.250    8.6677
    8.385    8.6783
    8.520    8.3307
    8.655    7.7093
    8.790    6.3928
    8.925    5.6135
    9.060    5.7820
    9.195    5.2659
    9.330    5.3397
    9.465    4.8868
    9.600    5.2449
    9.735    4.7604
    9.870    4.8868
   10.005    4.9184
   10.140    5.1817
   10.275    5.0342
   10.410    6.1401
   10.545    5.6345
   10.680    5.2554
   10.815    5.4344
   10.950    5.4660
   11.085    5.0448
   11.220    5.2449
   11.355    5.2870
   11.490    5.0764
   11.625    5.2343
   11.760    5.0553
   11.895    5.3712
   12.030    5.2975
   12.165    5.6135
   12.300    5.3923
   12.435    5.6556
   12.570    5.5714
   12.705    5.3712
   12.840    5.4871
   12.975    5.5819
   13.110    5.5819
   13.245    5.3186
   13.380    5.1606
   13.515    5.3712
   13.650    5.1711
   13.785    5.2659
   13.920    5.1185
   14.055    5.1501
   14.190    4.9078
   14.325    5.2765
   14.460    5.2659
   14.595    5.0026
   14.730    5.2554
   14.865    4.9500
   15.000    5.1185
   15.135    5.0448
   15.270    5.2343
   15.405    4.5708
   15.540    5.3607
   15.675    5.2765
   15.810    4.9605
   15.945    5.0974
   16.080    4.9078
   16.215    5.1185
   16.350    4.9078
   16.485    5.2343
   16.620    5.0764
   16.755    4.9710
   16.890    5.0237
   17.025    4.3813
   17.160    5.0553
   17.295    5.1080
   17.430    5.1501
   17.565    4.7183
   17.700    4.7393
   17.835    4.5708
   17.970    5.3397
   18.105    4.9921
   18.240    5.0237
   18.375    5.1290
   18.510    4.9605
   18.645    4.9500
   18.780    5.0132
   18.915    4.9710
   19.050    4.7393
   19.185    4.8131
   19.320    5.1290
   19.455    5.0026
   19.590    4.9184
   19.725    5.0974
   19.860    5.2027
   19.995    5.0553
   20.130    5.6135
   20.265    5.0553
   20.400    5.2554
   20.535    5.2870
   20.670    5.1290
   20.805    5.3291
   20.940    5.1922
   21.075    5.3818
   21.210    5.0448
   21.345    5.2659
   21.480    5.1711
   21.615    5.3186
   21.750    5.2765
   21.885    5.5398
   22.020    5.5714
   22.155    5.3502
   22.290    4.8025
   22.425    4.7499
   22.560    5.0026
   22.695    5.1185
   22.830    4.9921
   22.965    4.6340
   23.100    4.5498
   23.235    4.6867
   23.370    4.8552
   23.505    4.7288
   23.640    4.7815
   23.775    4.8763
   23.910    4.6761
   24.045    4.5708
   24.180    4.6024
   24.315    4.7604
   24.450    4.6656
   24.585    4.7815
   24.720    4.5498
   24.855    4.6867
   24.990    4.4971
   25.125    4.2338
   25.260    4.4971
   25.395    4.6024
   25.530    4.1706
   25.665    4.1390
   25.800    4.4655
   25.935    4.1390
   26.070    4.0758
   26.205    3.9284
   26.340    4.1390
   26.475    4.0969
   26.610    3.8547
   26.745    3.8652
   26.880    3.9810
   27.015    3.9810
   27.150    4.1496
   27.285    3.8968
   27.420    3.8441
   27.555    3.9600
   27.690    3.8547
   27.825    4.0021
   27.960    3.9179
   28.095    4.1285
   28.230    3.9179
   28.365    4.3707
   28.500    3.9494
   28.635    3.8863
   28.770    3.9810
   28.905    3.6335
   29.040    3.7177
   29.175    3.8547
   29.310    3.8441
   29.445    3.9284
   29.580    3.9600
   29.715    3.5914
   29.850    3.7599
   29.985    3.8547
   30.120    3.8757
   30.255    3.6967
   30.390    3.7072
   30.525    3.5176
   30.660    3.8336
   30.795    3.5176
   30.930    3.7072
   31.065    3.6546
   31.200    3.4123
   31.335    3.8231
   31.470    3.9600
   31.605    3.6440
   31.740    4.0864
   31.875    3.7493
   32.010    3.3386
   32.145    3.4860
   32.280    3.6862
   32.415    3.3281
   32.550    3.4755
   32.685    3.4650
   32.820    3.4229
   32.955    3.4650
   33.090    3.4755
   33.225    3.6019
   33.360    3.4018
   33.495    3.5598
   33.630    3.4860
   33.765    3.4755
   33.900    3.5492
   34.035    3.3070
   34.170    3.5282
   34.305    3.1912
   34.440    3.4650
   34.575    3.4860
   34.710    3.4860
   34.845    3.4123
   34.980    3.6124
   35.115    3.3281
   35.250    3.3491
   35.385    3.4544
   35.520    3.5071
   35.655    3.2017
   35.790    3.2965
   35.925    3.2859
   36.060    3.3702
   36.195    3.0858
   36.330    3.3386
   36.465    3.3070
   36.600    3.2649
   36.735    3.3070
   36.870    3.6862
   37.005    3.1174
   37.140    3.1912
   37.275    3.3491
   37.410    3.2333
   37.545    3.2965
   37.680    3.3597
   37.815    3.0226
   37.950    3.2017
   38.085    3.4123
   38.220    3.1174
   38.355    3.3807
   38.490    3.0858
   38.625    3.2649
   38.760    3.1701
   38.895    3.1069
   39.030    3.4650
   39.165    3.2859
   39.300    3.2227
   39.435    3.3491
   39.570    3.1912
   39.705    3.1069
   39.840    3.6124
   39.975    2.9595
   39.990    3.2017