File: data/MOCOF-1/PXRD/PXRD_KE-263_Co-Ka1_capillary-1mm_180s-deg.xyd
    1.500    6.3046
    1.635    5.1977
    1.770    4.1169
    1.905    3.3318
    2.040    2.6954
    2.175    2.2139
    2.310    1.8753
    2.445    1.5772
    2.580    1.3543
    2.715    1.1726
    2.850    1.0638
    2.985    0.9634
    3.120    0.8766
    3.255    0.7963
    3.390    0.7678
    3.525    0.7098
    3.660    0.6536
    3.795    0.6453
    3.930    0.6088
    4.065    0.6162
    4.200    0.6287
    4.335    0.7074
    4.470    0.8249
    4.605    0.6230
    4.740    0.5517
    4.875    0.5374
    5.010    0.5401
    5.145    0.5582
    5.280    0.5273
    5.415    0.5163
    5.550    0.4919
    5.685    0.4875
    5.820    0.4824
    5.955    0.4824
    6.090    0.4771
    6.225    0.5065
    6.360    0.4893
    6.495    0.4462
    6.630    0.4697
    6.765    0.4584
    6.900    0.4575
    7.035    0.4604
    7.170    0.4649
    7.305    0.4474
    7.440    0.4378
    7.575    0.4444
    7.710    0.4572
    7.845    0.4545
    7.980    0.4676
    8.115    0.4765
    8.250    0.4756
    8.385    0.4833
    8.520    0.4916
    8.655    0.4801
    8.790    0.4928
    8.925    0.4967
    9.060    0.4964
    9.195    0.5089
    9.330    0.5193
    9.465    0.5077
    9.600    0.5226
    9.735    0.5374
    9.870    0.5463
   10.005    0.5454
   10.140    0.5538
   10.275    0.5413
   10.410    0.5674
   10.545    0.5874
   10.680    0.5657
   10.815    0.6305
   10.950    0.5975
   11.085    0.6141
   11.220    0.6037
   11.355    0.5972
   11.490    0.6126
   11.625    0.6468
   11.760    0.5963
   11.895    0.6224
   12.030    0.6189
   12.165    0.6266
   12.300    0.6581
   12.435    0.6046
   12.570    0.5954
   12.705    0.5960
   12.840    0.5761
   12.975    0.5719
   13.110    0.5523
   13.245    0.5829
   13.380    0.5347
   13.515    0.5267
   13.650    0.8281
   13.785    0.5208
   13.920    0.4884
   14.055    0.4952
   14.190    0.4884
   14.325    0.4735
   14.460    0.4729
   14.595    0.4729
   14.730    0.4569
   14.865    0.4491
   15.000    0.4435
   15.135    0.4566
   15.270    0.4509
   15.405    0.4200
   15.540    0.4218
   15.675    0.4200
   15.810    0.4456
   15.945    0.4304
   16.080    0.4242
   16.215    0.4283
   16.350    0.4161
   16.485    0.4349
   16.620    0.4271
   16.755    0.4230
   16.890    0.4197
   17.025    0.4239
   17.160    0.4322
   17.295    0.4277
   17.430    0.4114
   17.565    0.4230
   17.700    0.4251
   17.835    0.4319
   17.970    0.4268
   18.105    0.4182
   18.240    0.4069
   18.375    0.4355
   18.510    0.4438
   18.645    0.9099
   18.780    0.4176
   18.915    0.4138
   19.050    0.4173
   19.185    0.4462
   19.320    0.4200
   19.455    0.4126
   19.590    0.4334
   19.725    0.4488
   19.860    0.4138
   19.995    0.4141
   20.130    0.4182
   20.265    0.4381
   20.400    0.4248
   20.535    0.4248
   20.670    0.4209
   20.805    0.4349
   20.940    0.4307
   21.075    0.4361
   21.210    0.4280
   21.345    0.4337
   21.480    0.4943
   21.615    0.6227
   21.750    0.4420
   21.885    0.4334
   22.020    0.4441
   22.155    0.4414
   22.290    0.4304
   22.425    0.4355
   22.560    0.4503
   22.695    0.4292
   22.830    0.4545
   22.965    0.4616
   23.100    0.4584
   23.235    0.4592
   23.370    0.4480
   23.505    0.5380
   23.640    0.4578
   23.775    0.4584
   23.910    0.4542
   24.045    0.4640
   24.180    0.4667
   24.315    0.5148
   24.450    0.4809
   24.585    0.4652
   24.720    0.4795
   24.855    0.6840
   24.990    0.5761
   25.125    0.4875
   25.260    0.4697
   25.395    0.4902
   25.530    0.4866
   25.665    0.5624
   25.800    0.4765
   25.935    0.4872
   26.070    0.4928
   26.205    0.4827
   26.340    0.5151
   26.475    0.4836
   26.610    0.4818
   26.745    0.4863
   26.880    0.4866
   27.015    0.5047
   27.150    0.4590
   27.285    0.4928
   27.420    0.4699
   27.555    0.5279
   27.690    0.6590
   27.825    0.5125
   27.960    0.4765
   28.095    0.4946
   28.230    0.6673
   28.365    1.1515
   28.500    0.5707
   28.635    0.5190
   28.770    0.4667
   28.905    0.4702
   29.040    0.4625
   29.175    0.4708
   29.310    0.4783
   29.445    0.6453
   29.580    0.9307
   29.715    0.4869
   29.850    0.4705
   29.985    0.4762
   30.120    1.0303
   30.255    0.6611
   30.390    0.4462
   30.525    0.4610
   30.660    0.4607
   30.795    0.4292
   30.930    0.4274
   31.065    0.4560
   31.200    0.6108
   31.335    1.6699
   31.470    0.6100
   31.605    0.4503
   31.740    0.5184
   31.875    1.5591
   32.010    0.7526
   32.145    0.4352
   32.280    0.4084
   32.415    0.3912
   32.550    0.3754
   32.685    0.3849
   32.820    0.4298
   32.955    0.4390
   33.090    0.3959
   33.225    0.3995
   33.360    0.3855
   33.495    0.4572
   33.630    0.4694
   33.765    0.3772
   33.900    0.3840
   34.035    0.4138
   34.170    0.3650
   34.305    0.3659
   34.440    0.3421
   34.575    0.4043
   34.710    0.3519
   34.845    0.3305
   34.980    0.3534
   35.115    0.3499
   35.250    0.4150
   35.385    0.4943
   35.520    0.3219
   35.655    0.3412
   35.790    0.3222
   35.925    0.3204
   36.060    0.3386
   36.195    0.3317
   36.330    0.3071
   36.465    0.3139
   36.600    0.3216
   36.735    0.3032
   36.870    0.3484
   37.005    0.3641
   37.140    0.3600
   37.275    0.2964
   37.410    0.2889
   37.545    0.2851
   37.680    0.2874
   37.815    0.3127
   37.950    0.3267
   38.085    0.3852
   38.220    0.3564
   38.355    0.2874
   38.490    0.2699
   38.625    0.2565
   38.760    0.2687
   38.895    0.2556
   39.030    0.2705
   39.165    0.2449
   39.300    0.2619
   39.435    0.2577
   39.570    0.2583
   39.705    0.2598
   39.840    0.2423
   39.975    0.2384
   39.990    0.2354