File: data/MOCOF-1/PXRD/PXRD_KE-269_Cu-Ka1_film-3mm_3s-deg.xyd
    1.500   13.1999
    1.635   12.2696
    1.770   11.1813
    1.905   10.2335
    2.040   10.3037
    2.175    9.5489
    2.310    8.9872
    2.445    8.5659
    2.580    8.2500
    2.715    8.1271
    2.850    8.0393
    2.985    8.1271
    3.120    8.3553
    3.255    7.7234
    3.390    7.7409
    3.525    8.1095
    3.660    7.9867
    3.795    7.2845
    3.930    8.0042
    4.065    7.6883
    4.200    7.8111
    4.335    7.8638
    4.470    7.8638
    4.605    8.4781
    4.740    8.0920
    4.875    8.7063
    5.010    8.8292
    5.145    9.6015
    5.280   10.8127
    5.415   10.5845
    5.550   10.0579
    5.685   10.4616
    5.820    9.5664
    5.955    8.8994
    6.090    7.9867
    6.225    7.7058
    6.360    7.5654
    6.495    7.1441
    6.630    6.7053
    6.765    7.3723
    6.900    7.2319
    7.035    6.5473
    7.170    6.1260
    7.305    6.2489
    7.440    5.9154
    7.575    6.0734
    7.710    5.7925
    7.845    5.8276
    7.980    5.3537
    8.115    5.8276
    8.250    5.3186
    8.385    5.1080
    8.520    5.2835
    8.655    4.9500
    8.790    5.1431
    8.925    4.8447
    9.060    4.8622
    9.195    4.6691
    9.330    5.1080
    9.465    4.8447
    9.600    5.3361
    9.735    4.6340
    9.870    4.8973
   10.005    5.0728
   10.140    5.3010
   10.275    5.1606
   10.410    5.2133
   10.545    5.2133
   10.680    7.0915
   10.815    5.4766
   10.950    5.5994
   11.085    5.0728
   11.220    5.4590
   11.355    5.3010
   11.490    5.2659
   11.625    5.6345
   11.760    5.0553
   11.895    5.0202
   12.030    5.0026
   12.165    4.9675
   12.300    5.0202
   12.435    4.6867
   12.570    4.9675
   12.705    4.9851
   12.840    4.5111
   12.975    4.8798
   13.110    4.6516
   13.245    4.6867
   13.380    4.3532
   13.515    4.8622
   13.650    4.4234
   13.785    5.2835
   13.920    5.0377
   14.055    5.2659
   14.190    4.8973
   14.325    5.1255
   14.460    5.1957
   14.595    5.4415
   14.730    5.5117
   14.865    5.0553
   15.000    4.5989
   15.135    5.0553
   15.270    4.6340
   15.405    4.7393
   15.540    4.8447
   15.675    4.7393
   15.810    4.9675
   15.945    5.0377
   16.080    4.4760
   16.215    4.2478
   16.350    5.0904
   16.485    5.1606
   16.620    4.4936
   16.755    5.2133
   16.890    5.0026
   17.025    4.5111
   17.160    4.5287
   17.295    4.4760
   17.430    4.3356
   17.565    4.8622
   17.700    4.5638
   17.835    5.5468
   17.970    4.7744
   18.105    4.1250
   18.240    4.3883
   18.375    4.3532
   18.510    6.4595
   18.645    4.3005
   18.780    4.5814
   18.915    5.0728
   19.050    4.7218
   19.185    4.3181
   19.320    4.5989
   19.455    4.3532
   19.590    4.3356
   19.725    4.2478
   19.860    4.4936
   19.995    4.0021
   20.130    4.0723
   20.265    4.2127
   20.400    4.4058
   20.535    4.1250
   20.670    4.0723
   20.805    4.1074
   20.940    4.0548
   21.075    4.1776
   21.210    3.5984
   21.345    4.2654
   21.480    3.9846
   21.615    4.1250
   21.750    4.0723
   21.885    4.4058
   22.020    3.8090
   22.155    4.0197
   22.290    4.0197
   22.425    3.7739
   22.560    3.6335
   22.695    3.3877
   22.830    3.7915
   22.965    3.6510
   23.100    3.9846
   23.235    3.5282
   23.370    3.8266
   23.505    3.6686
   23.640    3.8441
   23.775    5.3712
   23.910    3.7213
   24.045    3.7213
   24.180    3.5984
   24.315    3.3351
   24.450    3.4931
   24.585    3.6510
   24.720    3.4404
   24.855    3.6686
   24.990    3.5106
   25.125    4.0021
   25.260    5.6872
   25.395    3.4229
   25.530    3.3351
   25.665    3.6335
   25.800    3.4053
   25.935    3.2473
   26.070    2.8260
   26.205    3.6335
   26.340    3.3000
   26.475    3.6335
   26.610    3.5106
   26.745    4.5638
   26.880    6.2313
   27.015    3.3351
   27.150    3.4755
   27.285    4.4936
   27.420    3.1069
   27.555    3.0016
   27.690    3.2473
   27.825    3.1245
   27.960    3.2649
   28.095    3.0718
   28.230    2.7909
   28.365    2.8436
   28.500    2.8260
   28.635    3.2824
   28.770    2.8612
   28.905    3.1771
   29.040    3.0367
   29.175    2.8787
   29.310    2.6330
   29.445    2.3872
   29.580    2.7207
   29.715    2.5979
   29.850    2.5979
   29.985    2.7558
   30.120    2.4750
   30.255    2.6330
   30.390    2.3697
   30.525    2.7032
   30.660    2.5101
   30.795    2.1941
   30.930    2.0888
   31.065    2.3170
   31.200    2.1590
   31.335    2.4750
   31.470    2.4925
   31.605    2.2468
   31.740    2.4223
   31.875    2.1415
   32.010    2.3697
   32.145    2.3872
   32.280    2.0888
   32.415    2.2292
   32.550    2.1064
   32.685    2.2995
   32.820    1.9835
   32.955    2.1239
   33.090    1.8255
   33.225    1.7729
   33.360    2.1239
   33.495    2.0011
   33.630    2.0186
   33.765    2.0011
   33.900    2.1590
   34.035    1.7378
   34.170    1.5447
   34.305    1.8957
   34.440    1.7027
   34.575    1.5973
   34.710    1.8782
   34.845    1.6500
   34.980    1.8606
   35.115    2.1590
   35.250    1.8080
   35.385    1.6851
   35.520    1.9835
   35.655    1.8782
   35.790    1.9659
   35.925    1.8606
   36.060    1.7378
   36.195    1.6324
   36.330    2.1064
   36.465    2.1239
   36.600    1.8080
   36.735    1.9659
   36.870    1.7027
   37.005    1.6851
   37.140    1.6675
   37.275    1.5271
   37.410    1.8431
   37.545    1.8957
   37.680    1.8431
   37.815    1.7553
   37.950    1.7904
   38.085    1.9133
   38.220    1.6675
   38.355    1.7904
   38.490    2.0362
   38.625    1.8255
   38.760    1.8431
   38.895    1.7378
   39.030    1.6851
   39.165    1.6675
   39.300    1.7904
   39.435    1.7904
   39.570    1.7202
   39.705    1.5447
   39.840    1.6324
   39.975    1.5096
   39.990    1.7378