File: data/MIL-88B_101/PXRD/PXRD_S-5_Cu-Kα1_capillary-0.7mm.xyd
    2.000     7150
    2.150     5857
    2.300     4675
    2.450     4137
    2.600     3636
    2.750     3599
    2.900     3581
    3.050     3462
    3.200     3286
    3.350     3050
    3.500     3271
    3.650     3010
    3.800     2994
    3.950     3055
    4.100     3111
    4.250     2958
    4.400     2908
    4.550     2953
    4.700     2928
    4.850     2821
    5.000     2874
    5.150     2887
    5.300     2897
    5.450     2921
    5.600     2900
    5.750     2875
    5.900     2786
    6.050     2834
    6.200     2870
    6.350     2769
    6.500     2820
    6.650     2757
    6.800     2872
    6.950     2773
    7.100     2837
    7.250     2755
    7.400     2884
    7.550     2851
    7.700     2781
    7.850     2772
    8.000     2792
    8.150     2765
    8.300     2771
    8.450     2788
    8.600     2835
    8.750     3292
    8.900     4316
    9.050     6702
    9.200    14793
    9.350    29018
    9.500     7724
    9.650     3097
    9.800     2876
    9.950     2774
   10.100     2839
   10.250     2744
   10.400     2710
   10.550     2729
   10.700     2829
   10.850     2717
   11.000     2805
   11.150     2658
   11.300     2858
   11.450     2657
   11.600     2802
   11.750     2807
   11.900     2631
   12.050     2769
   12.200     3167
   12.350     4138
   12.500     8593
   12.650     2714
   12.800     2764
   12.950     2532
   13.100     2666
   13.250     2559
   13.400     2728
   13.550     2732
   13.700     2743
   13.850     2835
   14.000     2650
   14.150     2674
   14.300     2552
   14.450     2635
   14.600     2681
   14.750     2687
   14.900     2858
   15.050     2800
   15.200     2674
   15.350     2599
   15.500     2782
   15.650     2665
   15.800     2755
   15.950     3098
   16.100     6119
   16.250     2934
   16.400     3604
   16.550     3409
   16.700     2857
   16.850     3185
   17.000     3266
   17.150     2679
   17.300     2778
   17.450     2757
   17.600     2739
   17.750     2697
   17.900     2689
   18.050     2581
   18.200     2842
   18.350     2708
   18.500     3027
   18.650     5142
   18.800    16310
   18.950     3092
   19.100     3605
   19.250     4900
   19.400     2819
   19.550     2788
   19.700     2680
   19.850     2739
   20.000     2654
   20.150     2787
   20.300     2658
   20.450     2752
   20.600     2676
   20.750     2961
   20.900     3495
   21.050     2924
   21.200     2851
   21.350     3995
   21.500     3063
   21.650     3019
   21.800     3717
   21.950     8850
   22.100     3071
   22.250     2856
   22.400     2695
   22.550     2784
   22.700     2765
   22.850     2789
   23.000     2953
   23.150     2792
   23.300     2895
   23.450     3362
   23.600     2870
   23.750     3093
   23.900     3095
   24.050     2709
   24.200     2938
   24.350     2865
   24.500     2763
   24.650     2824
   24.800     3324
   24.950     2616
   25.100     2976
   25.250     3017
   25.400     2898
   25.550     2798
   25.700     2779
   25.850     3951
   26.000     2900
   26.150     4177
   26.300     2906
   26.450     2728
   26.600     2775
   26.750     2817
   26.900     2935
   27.050     2837
   27.200     2881
   27.350     2698
   27.500     2873
   27.650     2677
   27.800     2773
   27.950     2807
   28.100     3364
   28.250     3143
   28.400     4688
   28.550     2831
   28.700     2754
   28.850     2815
   29.000     2907
   29.150     2754
   29.300     2937
   29.450     2825
   29.600     2806
   29.750     3527
   29.900     2838
   30.050     2648
   30.200     3037
   30.350     2647
   30.500     2738
   30.650     2733
   30.800     2993
   30.950     3286
   31.100     2813
   31.250     2717
   31.400     2767
   31.550     2654
   31.700     2618
   31.850     2591
   32.000     2531
   32.150     2620
   32.300     2738
   32.450     3370
   32.600     2992
   32.750     2985
   32.900     3225
   33.050     2692
   33.200     2657
   33.350     2938
   33.500     2977
   33.650     2503
   33.800     2610
   33.950     2627
   34.100     2932
   34.250     2724
   34.400     3152
   34.550     3276
   34.700     2549
   34.850     2538
   35.000     2640
   35.150     2464
   35.300     2794
   35.450     2517
   35.600     2679
   35.750     2558
   35.900     2536
   36.050     2704
   36.200     2588
   36.350     2451
   36.500     2419
   36.650     2428
   36.800     2581
   36.950     2551
   37.100     2695
   37.250     2296
   37.400     2465
   37.550     2625
   37.700     2346
   37.850     2848
   38.000     2521
   38.150     3317
   38.300     2505
   38.450     2441
   38.600     2531
   38.750     2483
   38.900     2622
   39.050     2530
   39.200     2371
   39.350     2316
   39.500     2558
   39.650     2392
   39.800     2339
   39.950     2458
   40.100     2517
   40.250     2305
   40.400     2515
   40.550     3135
   40.700     2484
   40.850     2845
   41.000     2601
   41.150     2491
   41.300     2476
   41.450     2449
   41.600     2526
   41.750     3778
   41.900     2533
   42.050     2377
   42.200     2706
   42.350     3648
   42.500     2684
   42.650     2418
   42.800     2682
   42.950     2331
   43.100     2433
   43.250     2321
   43.400     2399
   43.550     2797
   43.700     2336
   43.850     2407
   43.985     2612