File: data/MIL-88B_101/PXRD/PXRD_MIL-53-Water_Cu-Kα1_capillary-0.7mm.xyd
    2.000       76
    2.150       80
    2.300       79
    2.450       69
    2.600       63
    2.750       72
    2.900       66
    3.050       70
    3.200       75
    3.350       61
    3.500       71
    3.650       72
    3.800       67
    3.950       55
    4.100       71
    4.250       68
    4.400       77
    4.550       63
    4.700       76
    4.850       61
    5.000       60
    5.150       61
    5.300       54
    5.450       70
    5.600       58
    5.750       67
    5.900       60
    6.050       65
    6.200       62
    6.350       64
    6.500       62
    6.650       69
    6.800       64
    6.950       61
    7.100       72
    7.250       56
    7.400       64
    7.550       57
    7.700       76
    7.850       63
    8.000       66
    8.150       66
    8.300       70
    8.450       70
    8.600       79
    8.750       56
    8.900       95
    9.050      205
    9.200       91
    9.350       59
    9.500       61
    9.650       68
    9.800       53
    9.950       59
   10.100       54
   10.250       63
   10.400       68
   10.550       71
   10.700       65
   10.850       57
   11.000       67
   11.150       57
   11.300       66
   11.450       82
   11.600       58
   11.750       77
   11.900       86
   12.050      190
   12.200      213
   12.350       91
   12.500       77
   12.650       70
   12.800       72
   12.950       63
   13.100       68
   13.250       62
   13.400       73
   13.550       72
   13.700       54
   13.850       61
   14.000       69
   14.150       68
   14.300       60
   14.450       56
   14.600       67
   14.750       63
   14.900       64
   15.050       83
   15.200       68
   15.350       56
   15.500       71
   15.650       62
   15.800       61
   15.950       78
   16.100       78
   16.250       71
   16.400       62
   16.550       73
   16.700       72
   16.850       72
   17.000       89
   17.150      147
   17.300       97
   17.450       79
   17.600       80
   17.750       83
   17.900      103
   18.050       70
   18.200       62
   18.350      109
   18.500       84
   18.650       73
   18.800       78
   18.950       82
   19.100       83
   19.250       75
   19.400       83
   19.550       65
   19.700       75
   19.850       85
   20.000       99
   20.150      102
   20.300       88
   20.450       85
   20.600       80
   20.750       81
   20.900       75
   21.050       84
   21.200       77
   21.350       99
   21.500       73
   21.650       91
   21.800       87
   21.950       81
   22.100       87
   22.250      100
   22.400       84
   22.550       88
   22.700       95
   22.850       99
   23.000       95
   23.150       91
   23.300      108
   23.450       92
   23.600      108
   23.750      121
   23.900       98
   24.050       97
   24.200      107
   24.350      113
   24.500      127
   24.650      116
   24.800      135
   24.950      114
   25.100      132
   25.250      111
   25.400      118
   25.550      113
   25.700      122
   25.850      113
   26.000      128
   26.150      114
   26.300      127
   26.450      132
   26.600      116
   26.750      132
   26.900      117
   27.050      134
   27.200      113
   27.350      139
   27.500      133
   27.650      124
   27.800      117
   27.950      109
   28.100      130
   28.250      122
   28.400      139
   28.550      144
   28.700      119
   28.850      141
   29.000      129
   29.150      113
   29.300      132
   29.450      126
   29.600      124
   29.750      150
   29.900      121
   30.050      110
   30.200      113
   30.350      113
   30.500      137
   30.650      115
   30.800      122
   30.950      126
   31.100      119
   31.250      114
   31.400      114
   31.550      134
   31.700      138
   31.850      101
   32.000      107
   32.150      102
   32.300      122
   32.450      114
   32.600      100
   32.750      106
   32.900      108
   33.050      109
   33.200      109
   33.350      110
   33.500       94
   33.650       95
   33.800      108
   33.950       93
   34.100      120
   34.250       95
   34.400      102
   34.550      114
   34.700      112
   34.850      100
   35.000      100
   35.150       96
   35.300      106
   35.450      102
   35.600       92
   35.750       83
   35.900       98
   36.050       90
   36.200      102
   36.350       97
   36.500       97
   36.650       84
   36.800      100
   36.950       94
   37.100       92
   37.250       84
   37.400       86
   37.550       91
   37.700      103
   37.850       79
   38.000      101
   38.150       90
   38.300       88
   38.450       85
   38.600       99
   38.750       83
   38.900       87
   39.050       83
   39.200       97
   39.350       83
   39.500       91
   39.650       75
   39.800       86
   39.950       97
   40.100      123
   40.250       92
   40.400       79
   40.550       85
   40.700       83
   40.850       83
   41.000      104
   41.150       88
   41.300       89
   41.450       96
   41.600       77
   41.750      103
   41.900       90
   42.050       84
   42.200       82
   42.350       91
   42.500       78
   42.650       64
   42.800       75
   42.950       71
   43.100       80
   43.250       83
   43.400       79
   43.550       70
   43.700       82
   43.850      102
   43.985       97