File: data/MIL-88B_101/PXRD/PXRD_S-12_Cu-Kα1_capillary-0.7mm.xyd
    2.000     1894
    2.150     1816
    2.300     1724
    2.450     1711
    2.600     1821
    2.750     1771
    2.900     1751
    3.050     2125
    3.200     3123
    3.350     1949
    3.500     1320
    3.650     1277
    3.800     1445
    3.950     1270
    4.100     1277
    4.250     1292
    4.400     1232
    4.550     1348
    4.700     1493
    4.850     1372
    5.000     1809
    5.150     1313
    5.300     1292
    5.450     1416
    5.600     1343
    5.750     1764
    5.900     1135
    6.050     1219
    6.200     1243
    6.350     1203
    6.500     1191
    6.650     1222
    6.800     1344
    6.950     1207
    7.100     1285
    7.250     1242
    7.400     1267
    7.550     1300
    7.700     1249
    7.850     1373
    8.000     1407
    8.150     1614
    8.300     2123
    8.450     1950
    8.600     1655
    8.750     2533
    8.900     3627
    9.050     1451
    9.200     1378
    9.350     1430
    9.500     1558
    9.650     1416
    9.800     1453
    9.950     1688
   10.100     1843
   10.250     1392
   10.400     1433
   10.550     1499
   10.700     1498
   10.850     1422
   11.000     1539
   11.150     1568
   11.300     1545
   11.450     1516
   11.600     1456
   11.750     1646
   11.900     1529
   12.050     1497
   12.200     1524
   12.350     1482
   12.500     1510
   12.650     1548
   12.800     1664
   12.950     1672
   13.100     1725
   13.250     1592
   13.400     1638
   13.550     1726
   13.700     1696
   13.850     1774
   14.000     1749
   14.150     1832
   14.300     1828
   14.450     1846
   14.600     1794
   14.750     1805
   14.900     1893
   15.050     2056
   15.200     2054
   15.350     2090
   15.500     2101
   15.650     2068
   15.800     2158
   15.950     2264
   16.100     2450
   16.250     2496
   16.400     2392
   16.550     2533
   16.700     2544
   16.850     2515
   17.000     2671
   17.150     2809
   17.300     2732
   17.450     2976
   17.600     2912
   17.750     3195
   17.900     2883
   18.050     2917
   18.200     2901
   18.350     3056
   18.500     3200
   18.650     3266
   18.800     3416
   18.950     3386
   19.100     3392
   19.250     3355
   19.400     3276
   19.550     3272
   19.700     3348
   19.850     3477
   20.000     3180
   20.150     3560
   20.300     3328
   20.450     3405
   20.600     3130
   20.750     3136
   20.900     3255
   21.050     3349
   21.200     3341
   21.350     3307
   21.500     3464
   21.650     3086
   21.800     3179
   21.950     2986
   22.100     3188
   22.250     2993
   22.400     2930
   22.550     3006
   22.700     2897
   22.850     2755
   23.000     2847
   23.150     2848
   23.300     2741
   23.450     2830
   23.600     2714
   23.750     2794
   23.900     2628
   24.050     2472
   24.200     2490
   24.350     2385
   24.500     2417
   24.650     2413
   24.800     2412
   24.950     2362
   25.100     2483
   25.250     2294
   25.400     2255
   25.550     2155
   25.700     2244
   25.850     2244
   26.000     2152
   26.150     2125
   26.300     2088
   26.450     2042
   26.600     1964
   26.750     1986
   26.900     1926
   27.050     1956
   27.200     1984
   27.350     1938
   27.500     2004
   27.650     1885
   27.800     1892
   27.950     1763
   28.100     1938
   28.250     1841
   28.400     1814
   28.550     1798
   28.700     1678
   28.850     1668
   29.000     1748
   29.150     1723
   29.300     1728
   29.450     1751
   29.600     1593
   29.750     1623
   29.900     1555
   30.050     1533
   30.200     1549
   30.350     1460
   30.500     1496
   30.650     1636
   30.800     1652
   30.950     1585
   31.100     1500
   31.250     1437
   31.400     1457
   31.550     1428
   31.700     1474
   31.850     1382
   32.000     1351
   32.150     1426
   32.300     1386
   32.450     1409
   32.600     1290
   32.750     1307
   32.900     1371
   33.050     1355
   33.200     1320
   33.350     1308
   33.500     1368
   33.650     1291
   33.800     1268
   33.950     1270
   34.100     1285
   34.250     1193
   34.400     1215
   34.550     1201
   34.700     1151
   34.850     1161
   35.000     1142
   35.150     1194
   35.300     1143
   35.450     1160
   35.600     1117
   35.750     1190
   35.900     1053
   36.050     1077
   36.200     1059
   36.350     1055
   36.500     1037
   36.650     1089
   36.800     1132
   36.950     1055
   37.100     1097
   37.250     1047
   37.400     1018
   37.550      968
   37.700     1018
   37.850     1027
   38.000     1010
   38.150     1067
   38.300     1052
   38.450     1008
   38.600      941
   38.750      986
   38.900     1022
   39.050      986
   39.200      988
   39.350     1010
   39.500      994
   39.650      922
   39.800      978
   39.950     1003
   40.100      974
   40.250      980
   40.400      957
   40.550      971
   40.700      984
   40.850      929
   41.000      930
   41.150     1016
   41.300      963
   41.450      987
   41.600      939
   41.750      943
   41.900      959
   42.050      903
   42.200      941
   42.350      906
   42.500      928
   42.650      935
   42.800      967
   42.950      964
   43.100     1037
   43.250      879
   43.400      944
   43.550      950
   43.700      951
   43.850      878
   43.985      896