File: data/MIL-88B_101/PXRD/PXRD_S-15_Cu-Kα1_capillary-0.7mm.xyd
    2.000     2031
    2.150     2124
    2.300     2156
    2.450     2327
    2.600     2607
    2.750     2645
    2.900     2681
    3.050     3018
    3.200     4421
    3.350     2791
    3.500     1956
    3.650     1902
    3.800     2125
    3.950     1895
    4.100     2032
    4.250     2030
    4.400     1899
    4.550     1994
    4.700     2226
    4.850     2103
    5.000     2788
    5.150     1945
    5.300     1986
    5.450     2153
    5.600     2034
    5.750     2603
    5.900     1786
    6.050     1854
    6.200     1845
    6.350     1812
    6.500     1847
    6.650     1757
    6.800     1928
    6.950     1844
    7.100     1907
    7.250     1851
    7.400     1915
    7.550     1928
    7.700     1954
    7.850     2153
    8.000     2096
    8.150     2344
    8.300     2953
    8.450     2795
    8.600     2544
    8.750     3715
    8.900     5707
    9.050     3820
    9.200     8862
    9.350     2924
    9.500     3648
    9.650     2427
    9.800     2179
    9.950     2354
   10.100     2672
   10.250     2050
   10.400     2072
   10.550     2070
   10.700     2208
   10.850     2067
   11.000     2257
   11.150     2227
   11.300     2173
   11.450     2151
   11.600     2216
   11.750     2184
   11.900     2261
   12.050     2203
   12.200     2368
   12.350     2900
   12.500     3519
   12.650     2202
   12.800     2335
   12.950     2253
   13.100     2422
   13.250     2264
   13.400     2402
   13.550     2532
   13.700     2797
   13.850     2947
   14.000     2430
   14.150     2627
   14.300     2552
   14.450     2661
   14.600     2539
   14.750     2591
   14.900     2851
   15.050     2965
   15.200     2874
   15.350     2898
   15.500     3102
   15.650     2924
   15.800     3211
   15.950     3967
   16.100     3341
   16.250     3640
   16.400     3982
   16.550     3994
   16.700     3731
   16.850     4132
   17.000     3677
   17.150     3749
   17.300     3776
   17.450     3963
   17.600     4153
   17.750     4353
   17.900     3978
   18.050     4102
   18.200     4062
   18.350     4210
   18.500     5344
   18.650     9611
   18.800     4697
   18.950     4401
   19.100     4714
   19.250     5532
   19.400     4297
   19.550     4366
   19.700     4289
   19.850     4412
   20.000     4152
   20.150     4285
   20.300     4240
   20.450     4281
   20.600     4061
   20.750     4128
   20.900     4628
   21.050     4321
   21.200     4797
   21.350     4152
   21.500     4385
   21.650     5125
   21.800     5503
   21.950     3784
   22.100     4059
   22.250     3700
   22.400     3768
   22.550     3820
   22.700     3628
   22.850     3504
   23.000     3588
   23.150     3613
   23.300     3808
   23.450     3730
   23.600     3628
   23.750     3782
   23.900     3588
   24.050     3442
   24.200     3476
   24.350     3462
   24.500     3560
   24.650     3467
   24.800     3552
   24.950     3144
   25.100     3684
   25.250     3325
   25.400     3328
   25.550     3351
   25.700     3876
   25.850     3528
   26.000     3823
   26.150     3139
   26.300     3113
   26.450     3028
   26.600     3095
   26.750     3034
   26.900     2979
   27.050     3076
   27.200     3100
   27.350     3104
   27.500     3155
   27.650     2967
   27.800     3247
   27.950     3187
   28.100     3450
   28.250     3455
   28.400     2891
   28.550     2822
   28.700     2909
   28.850     2819
   29.000     2825
   29.150     2915
   29.300     2831
   29.450     3023
   29.600     3007
   29.750     2755
   29.900     2687
   30.050     2635
   30.200     2717
   30.350     2629
   30.500     2662
   30.650     2750
   30.800     2681
   30.950     2525
   31.100     2800
   31.250     2437
   31.400     2495
   31.550     2554
   31.700     2490
   31.850     2479
   32.000     2348
   32.150     2469
   32.300     2760
   32.450     2962
   32.600     2732
   32.750     2460
   32.900     2476
   33.050     2532
   33.200     2400
   33.350     2659
   33.500     2619
   33.650     2428
   33.800     2480
   33.950     2251
   34.100     2717
   34.250     2444
   34.400     2443
   34.550     2240
   34.700     2154
   34.850     2142
   35.000     2270
   35.150     2331
   35.300     2225
   35.450     2185
   35.600     2201
   35.750     2232
   35.900     2063
   36.050     2046
   36.200     2132
   36.350     2085
   36.500     2066
   36.650     2185
   36.800     2218
   36.950     1977
   37.100     2071
   37.250     2116
   37.400     2140
   37.550     2298
   37.700     2062
   37.850     2242
   38.000     2150
   38.150     2106
   38.300     2000
   38.450     2119
   38.600     2024
   38.750     2005
   38.900     1977
   39.050     2088
   39.200     2055
   39.350     2065
   39.500     2080
   39.650     1939
   39.800     2109
   39.950     1981
   40.100     2176
   40.250     2077
   40.400     1977
   40.550     2442
   40.700     2075
   40.850     2004
   41.000     2014
   41.150     2098
   41.300     2031
   41.450     2101
   41.600     2318
   41.750     2282
   41.900     2230
   42.050     2210
   42.200     2180
   42.350     2073
   42.500     2121
   42.650     2018
   42.800     2106
   42.950     1902
   43.100     2074
   43.250     2069
   43.400     2009
   43.550     2130
   43.700     1948
   43.850     1944
   43.985     1979