File: data/MIL-88B_101/PXRD/PXRD_MIL-88B-Water_Cu-Kα1_capillary-0.7mm.xyd
    2.000      567
    2.150      593
    2.300      546
    2.450      546
    2.600      498
    2.750      527
    2.900      534
    3.050      525
    3.200      533
    3.350      539
    3.500      549
    3.650      555
    3.800      507
    3.950      482
    4.100      500
    4.250      477
    4.400      475
    4.550      505
    4.700      476
    4.850      482
    5.000      490
    5.150      496
    5.300      545
    5.450      577
    5.600      619
    5.750      892
    5.900      956
    6.050      478
    6.200      505
    6.350      452
    6.500      457
    6.650      493
    6.800      509
    6.950      443
    7.100      466
    7.250      482
    7.400      455
    7.550      467
    7.700      443
    7.850      520
    8.000      562
    8.150      727
    8.300     1028
    8.450     2632
    8.600      609
    8.750      487
    8.900      488
    9.050      481
    9.200      533
    9.350      510
    9.500      524
    9.650      447
    9.800      526
    9.950      552
   10.100      591
   10.250      719
   10.400      486
   10.550      490
   10.700      491
   10.850      474
   11.000      479
   11.150      486
   11.300      499
   11.450      504
   11.600      526
   11.750      491
   11.900      482
   12.050      523
   12.200      557
   12.350      534
   12.500      477
   12.650      480
   12.800      537
   12.950      486
   13.100      507
   13.250      561
   13.400      537
   13.550      589
   13.700      553
   13.850      539
   14.000      520
   14.150      531
   14.300      524
   14.450      521
   14.600      513
   14.750      538
   14.900      539
   15.050      540
   15.200      571
   15.350      607
   15.500      591
   15.650      588
   15.800      574
   15.950      728
   16.100      725
   16.250      572
   16.400      583
   16.550      612
   16.700      561
   16.850      575
   17.000      747
   17.150      861
   17.300      649
   17.450      677
   17.600      616
   17.750      776
   17.900      658
   18.050      668
   18.200      704
   18.350      652
   18.500      667
   18.650      720
   18.800      782
   18.950      763
   19.100      820
   19.250      761
   19.400      778
   19.550      837
   19.700      770
   19.850      880
   20.000      902
   20.150      860
   20.300      886
   20.450      853
   20.600      827
   20.750      829
   20.900      934
   21.050      891
   21.200      955
   21.350      924
   21.500      971
   21.650      956
   21.800      940
   21.950      978
   22.100     1042
   22.250      974
   22.400      980
   22.550     1012
   22.700      901
   22.850      953
   23.000      988
   23.150     1026
   23.300     1027
   23.450     1014
   23.600     1005
   23.750     1152
   23.900     1085
   24.050     1297
   24.200     1102
   24.350     1354
   24.500     1111
   24.650     1147
   24.800     1163
   24.950     1122
   25.100     1108
   25.250     1070
   25.400     1098
   25.550     1208
   25.700     1245
   25.850     1637
   26.000     1153
   26.150     1262
   26.300     1147
   26.450     1205
   26.600     1165
   26.750     1148
   26.900     1178
   27.050     1257
   27.200     1201
   27.350     1219
   27.500     1221
   27.650     1193
   27.800     1240
   27.950     1225
   28.100     1307
   28.250     1193
   28.400     1207
   28.550     1310
   28.700     1202
   28.850     1148
   29.000     1203
   29.150     1207
   29.300     1217
   29.450     1145
   29.600     1137
   29.750     1168
   29.900     1110
   30.050     1121
   30.200     1091
   30.350     1061
   30.500     1127
   30.650     1165
   30.800     1115
   30.950     1132
   31.100     1108
   31.250     1066
   31.400     1062
   31.550     1074
   31.700     1133
   31.850     1076
   32.000     1069
   32.150     1032
   32.300      932
   32.450     1135
   32.600      956
   32.750      942
   32.900     1002
   33.050     1079
   33.200     1017
   33.350      991
   33.500     1030
   33.650      920
   33.800      913
   33.950      942
   34.100      978
   34.250      901
   34.400      908
   34.550      912
   34.700      903
   34.850      872
   35.000      908
   35.150      877
   35.300      844
   35.450      878
   35.600      876
   35.750      913
   35.900      864
   36.050      795
   36.200      845
   36.350      778
   36.500      782
   36.650      790
   36.800      884
   36.950      828
   37.100      826
   37.250      828
   37.400      779
   37.550      858
   37.700      803
   37.850      834
   38.000      809
   38.150      807
   38.300      802
   38.450      784
   38.600      717
   38.750      760
   38.900      806
   39.050      846
   39.200      814
   39.350      832
   39.500      818
   39.650      733
   39.800      787
   39.950      774
   40.100      784
   40.250      757
   40.400      750
   40.550      765
   40.700      789
   40.850      767
   41.000      758
   41.150      804
   41.300      761
   41.450      765
   41.600      712
   41.750      768
   41.900      709
   42.050      787
   42.200      790
   42.350      726
   42.500      720
   42.650      726
   42.800      712
   42.950      786
   43.100      740
   43.250      709
   43.400      658
   43.550      719
   43.700      731
   43.850      751
   43.985      641