File: data/MIL-88B_101/PXRD/PXRD_S-2_Cu-Kα1_capillary-0.7mm.xyd
    2.000      627
    2.150      651
    2.300      643
    2.450      661
    2.600      680
    2.750      633
    2.900      631
    3.050      697
    3.200      697
    3.350      649
    3.500      641
    3.650      648
    3.800      630
    3.950      666
    4.100      701
    4.250      650
    4.400      622
    4.550      687
    4.700      654
    4.850      611
    5.000      684
    5.150      643
    5.300      682
    5.450      634
    5.600      688
    5.750      633
    5.900      623
    6.050      636
    6.200      658
    6.350      662
    6.500      623
    6.650      669
    6.800      673
    6.950      650
    7.100      686
    7.250      641
    7.400      634
    7.550      706
    7.700      678
    7.850      702
    8.000      676
    8.150      714
    8.300      661
    8.450      696
    8.600      701
    8.750      686
    8.900      759
    9.050      789
    9.200     2035
    9.350      833
    9.500     1006
    9.650      736
    9.800      697
    9.950      711
   10.100      754
   10.250      694
   10.400      697
   10.550      742
   10.700      702
   10.850      719
   11.000      761
   11.150      724
   11.300      760
   11.450      765
   11.600      778
   11.750      763
   11.900      740
   12.050      709
   12.200      768
   12.350      905
   12.500      977
   12.650      817
   12.800      807
   12.950      844
   13.100      911
   13.250      870
   13.400      838
   13.550      854
   13.700      946
   13.850     1007
   14.000      896
   14.150      977
   14.300      904
   14.450      938
   14.600      970
   14.750      941
   14.900     1014
   15.050     1067
   15.200     1081
   15.350     1135
   15.500     1108
   15.650     1071
   15.800     1166
   15.950     1381
   16.100     1274
   16.250     1181
   16.400     1342
   16.550     1356
   16.700     1223
   16.850     1437
   17.000     1336
   17.150     1396
   17.300     1414
   17.450     1504
   17.600     1483
   17.750     1579
   17.900     1528
   18.050     1482
   18.200     1546
   18.350     1618
   18.500     1640
   18.650     3008
   18.800     1749
   18.950     1705
   19.100     1811
   19.250     2034
   19.400     1677
   19.550     1717
   19.700     1740
   19.850     1789
   20.000     1662
   20.150     1715
   20.300     1649
   20.450     1657
   20.600     1570
   20.750     1589
   20.900     1734
   21.050     1574
   21.200     1751
   21.350     1615
   21.500     1605
   21.650     1604
   21.800     1790
   21.950     1465
   22.100     1552
   22.250     1348
   22.400     1385
   22.550     1450
   22.700     1377
   22.850     1394
   23.000     1368
   23.150     1346
   23.300     1415
   23.450     1340
   23.600     1359
   23.750     1398
   23.900     1230
   24.050     1163
   24.200     1230
   24.350     1215
   24.500     1199
   24.650     1209
   24.800     1242
   24.950     1206
   25.100     1297
   25.250     1169
   25.400     1131
   25.550     1139
   25.700     1260
   25.850     1219
   26.000     1281
   26.150     1182
   26.300     1188
   26.450     1144
   26.600     1071
   26.750     1019
   26.900     1048
   27.050     1096
   27.200     1132
   27.350     1076
   27.500     1104
   27.650     1047
   27.800     1036
   27.950      962
   28.100     1112
   28.250     1112
   28.400     1000
   28.550      964
   28.700      970
   28.850      971
   29.000      944
   29.150      981
   29.300      977
   29.450     1039
   29.600      940
   29.750      972
   29.900      870
   30.050      854
   30.200      903
   30.350      885
   30.500      901
   30.650      996
   30.800      897
   30.950      907
   31.100      889
   31.250      855
   31.400      824
   31.550      879
   31.700      836
   31.850      817
   32.000      792
   32.150      867
   32.300      851
   32.450      800
   32.600      810
   32.750      702
   32.900      714
   33.050      765
   33.200      774
   33.350      827
   33.500      756
   33.650      699
   33.800      739
   33.950      675
   34.100      837
   34.250      660
   34.400      730
   34.550      700
   34.700      648
   34.850      627
   35.000      675
   35.150      682
   35.300      655
   35.450      621
   35.600      678
   35.750      664
   35.900      600
   36.050      576
   36.200      580
   36.350      565
   36.500      611
   36.650      639
   36.800      596
   36.950      647
   37.100      641
   37.250      529
   37.400      551
   37.550      642
   37.700      540
   37.850      618
   38.000      585
   38.150      602
   38.300      571
   38.450      559
   38.600      526
   38.750      544
   38.900      575
   39.050      570
   39.200      557
   39.350      570
   39.500      565
   39.650      508
   39.800      540
   39.950      546
   40.100      585
   40.250      529
   40.400      553
   40.550      628
   40.700      545
   40.850      494
   41.000      552
   41.150      530
   41.300      557
   41.450      563
   41.600      638
   41.750      563
   41.900      550
   42.050      494
   42.200      586
   42.350      536
   42.500      537
   42.650      515
   42.800      534
   42.950      553
   43.100      529
   43.250      502
   43.400      485
   43.550      547
   43.700      486
   43.850      499
   43.985      516