File: data/MIL-88B_101/PXRD/PXRD_MIL-88B-DMF_Cu-Kα1_capillary-0.7mm.xyd
    2.000     1566
    2.150     1578
    2.300     1437
    2.450     1440
    2.600     1370
    2.750     1229
    2.900     1311
    3.050     1285
    3.200     1294
    3.350     1278
    3.500     1318
    3.650     1207
    3.800     1236
    3.950     1175
    4.100     1282
    4.250     1168
    4.400     1180
    4.550     1198
    4.700     1176
    4.850     1147
    5.000     1258
    5.150     1244
    5.300     1223
    5.450     1255
    5.600     1195
    5.750     1334
    5.900     1167
    6.050     1182
    6.200     1196
    6.350     1135
    6.500     1172
    6.650     1172
    6.800     1258
    6.950     1270
    7.100     1255
    7.250     1269
    7.400     1173
    7.550     1227
    7.700     1242
    7.850     1290
    8.000     1214
    8.150     1248
    8.300     1231
    8.450     1217
    8.600     1177
    8.750     1192
    8.900     1297
    9.050     1425
    9.200     2321
    9.350     1530
    9.500     1538
    9.650     1305
    9.800     1315
    9.950     1243
   10.100     1353
   10.250     1293
   10.400     1349
   10.550     1329
   10.700     1296
   10.850     1320
   11.000     1358
   11.150     1342
   11.300     1340
   11.450     1395
   11.600     1396
   11.750     1457
   11.900     1381
   12.050     1370
   12.200     1440
   12.350     1469
   12.500     1760
   12.650     1499
   12.800     1593
   12.950     1527
   13.100     1569
   13.250     1515
   13.400     1465
   13.550     1593
   13.700     1649
   13.850     1829
   14.000     1601
   14.150     1683
   14.300     1717
   14.450     1700
   14.600     1707
   14.750     1721
   14.900     1868
   15.050     1817
   15.200     1928
   15.350     1975
   15.500     2052
   15.650     1939
   15.800     2196
   15.950     2241
   16.100     2297
   16.250     2223
   16.400     2349
   16.550     2398
   16.700     2316
   16.850     2526
   17.000     2511
   17.150     2608
   17.300     2667
   17.450     2872
   17.600     2695
   17.750     2875
   17.900     2849
   18.050     2892
   18.200     2921
   18.350     2807
   18.500     3075
   18.650     4078
   18.800     3167
   18.950     3202
   19.100     3334
   19.250     3371
   19.400     3165
   19.550     3207
   19.700     3208
   19.850     3341
   20.000     3176
   20.150     3155
   20.300     3142
   20.450     3106
   20.600     2980
   20.750     2929
   20.900     3149
   21.050     2987
   21.200     3201
   21.350     2925
   21.500     3075
   21.650     2943
   21.800     3183
   21.950     2783
   22.100     2971
   22.250     2680
   22.400     2560
   22.550     2599
   22.700     2549
   22.850     2481
   23.000     2499
   23.150     2527
   23.300     2456
   23.450     2474
   23.600     2319
   23.750     2379
   23.900     2263
   24.050     2128
   24.200     2141
   24.350     2144
   24.500     2123
   24.650     2135
   24.800     2213
   24.950     2181
   25.100     2183
   25.250     2103
   25.400     2012
   25.550     2038
   25.700     2073
   25.850     2032
   26.000     2101
   26.150     1924
   26.300     1959
   26.450     1911
   26.600     1839
   26.750     1750
   26.900     1800
   27.050     1824
   27.200     1820
   27.350     1805
   27.500     1752
   27.650     1667
   27.800     1788
   27.950     1680
   28.100     1820
   28.250     1783
   28.400     1654
   28.550     1650
   28.700     1578
   28.850     1593
   29.000     1550
   29.150     1625
   29.300     1527
   29.450     1594
   29.600     1554
   29.750     1573
   29.900     1468
   30.050     1371
   30.200     1412
   30.350     1364
   30.500     1353
   30.650     1504
   30.800     1496
   30.950     1444
   31.100     1409
   31.250     1316
   31.400     1285
   31.550     1210
   31.700     1260
   31.850     1278
   32.000     1237
   32.150     1260
   32.300     1268
   32.450     1270
   32.600     1209
   32.750     1107
   32.900     1203
   33.050     1156
   33.200     1184
   33.350     1271
   33.500     1169
   33.650     1057
   33.800     1126
   33.950     1070
   34.100     1174
   34.250     1090
   34.400     1130
   34.550     1090
   34.700     1034
   34.850      997
   35.000     1018
   35.150     1042
   35.300     1003
   35.450      998
   35.600      943
   35.750     1066
   35.900      942
   36.050      897
   36.200      938
   36.350      887
   36.500      857
   36.650      914
   36.800     1011
   36.950      932
   37.100      986
   37.250      919
   37.400      847
   37.550      948
   37.700      843
   37.850      970
   38.000      939
   38.150      942
   38.300      875
   38.450      870
   38.600      829
   38.750      852
   38.900      874
   39.050      848
   39.200      881
   39.350      864
   39.500      865
   39.650      800
   39.800      904
   39.950      856
   40.100      905
   40.250      816
   40.400      833
   40.550      891
   40.700      852
   40.850      816
   41.000      819
   41.150      815
   41.300      813
   41.450      861
   41.600      896
   41.750      923
   41.900      820
   42.050      837
   42.200      880
   42.350      790
   42.500      813
   42.650      810
   42.800      867
   42.950      837
   43.100      855
   43.250      824
   43.400      782
   43.550      824
   43.700      800
   43.850      813
   43.985      751