File: data/MIL-88B_101/PXRD/PXRD_S-16_Cu-Kα1_capillary-0.7mm.xyd
    2.000     1220
    2.150     1340
    2.300     1299
    2.450     1479
    2.600     1574
    2.750     1609
    2.900     1554
    3.050     1844
    3.200     2557
    3.350     1631
    3.500     1267
    3.650     1210
    3.800     1385
    3.950     1170
    4.100     1265
    4.250     1275
    4.400     1182
    4.550     1226
    4.700     1345
    4.850     1322
    5.000     1678
    5.150     1226
    5.300     1280
    5.450     1382
    5.600     1269
    5.750     1539
    5.900     1137
    6.050     1137
    6.200     1204
    6.350     1158
    6.500     1163
    6.650     1151
    6.800     1213
    6.950     1130
    7.100     1219
    7.250     1173
    7.400     1221
    7.550     1245
    7.700     1274
    7.850     1352
    8.000     1348
    8.150     1442
    8.300     1818
    8.450     1644
    8.600     1556
    8.750     2198
    8.900     3214
    9.050     2313
    9.200     5418
    9.350     1722
    9.500     2396
    9.650     1558
    9.800     1392
    9.950     1484
   10.100     1690
   10.250     1300
   10.400     1388
   10.550     1358
   10.700     1441
   10.850     1317
   11.000     1367
   11.150     1422
   11.300     1386
   11.450     1443
   11.600     1388
   11.750     1443
   11.900     1411
   12.050     1450
   12.200     1482
   12.350     1828
   12.500     2214
   12.650     1368
   12.800     1550
   12.950     1478
   13.100     1543
   13.250     1520
   13.400     1530
   13.550     1599
   13.700     1900
   13.850     1926
   14.000     1599
   14.150     1670
   14.300     1693
   14.450     1737
   14.600     1665
   14.750     1770
   14.900     1853
   15.050     1932
   15.200     1874
   15.350     2008
   15.500     2068
   15.650     1932
   15.800     2218
   15.950     2682
   16.100     2215
   16.250     2444
   16.400     2637
   16.550     2609
   16.700     2467
   16.850     2789
   17.000     2503
   17.150     2576
   17.300     2553
   17.450     2700
   17.600     2687
   17.750     2939
   17.900     2689
   18.050     2653
   18.200     2757
   18.350     2833
   18.500     3515
   18.650     6164
   18.800     3204
   18.950     2936
   19.100     3144
   19.250     3744
   19.400     3028
   19.550     3055
   19.700     3012
   19.850     3030
   20.000     2889
   20.150     2950
   20.300     2952
   20.450     3007
   20.600     2795
   20.750     2850
   20.900     3230
   21.050     3015
   21.200     3210
   21.350     2837
   21.500     3023
   21.650     3438
   21.800     3682
   21.950     2663
   22.100     2811
   22.250     2625
   22.400     2501
   22.550     2573
   22.700     2463
   22.850     2415
   23.000     2356
   23.150     2457
   23.300     2607
   23.450     2441
   23.600     2382
   23.750     2592
   23.900     2392
   24.050     2225
   24.200     2261
   24.350     2264
   24.500     2355
   24.650     2295
   24.800     2309
   24.950     2251
   25.100     2427
   25.250     2170
   25.400     2238
   25.550     2271
   25.700     2544
   25.850     2311
   26.000     2559
   26.150     2106
   26.300     2089
   26.450     2017
   26.600     2008
   26.750     2003
   26.900     2043
   27.050     2064
   27.200     2089
   27.350     2052
   27.500     2072
   27.650     1928
   27.800     2205
   27.950     2028
   28.100     2295
   28.250     2303
   28.400     1911
   28.550     1902
   28.700     1892
   28.850     1894
   29.000     1848
   29.150     1932
   29.300     1894
   29.450     1870
   29.600     1906
   29.750     1833
   29.900     1741
   30.050     1786
   30.200     1757
   30.350     1705
   30.500     1700
   30.650     1842
   30.800     1763
   30.950     1667
   31.100     1714
   31.250     1545
   31.400     1691
   31.550     1682
   31.700     1632
   31.850     1631
   32.000     1560
   32.150     1606
   32.300     1763
   32.450     1865
   32.600     1737
   32.750     1531
   32.900     1523
   33.050     1552
   33.200     1573
   33.350     1812
   33.500     1572
   33.650     1441
   33.800     1654
   33.950     1450
   34.100     1695
   34.250     1535
   34.400     1614
   34.550     1386
   34.700     1409
   34.850     1316
   35.000     1418
   35.150     1470
   35.300     1462
   35.450     1460
   35.600     1314
   35.750     1385
   35.900     1310
   36.050     1336
   36.200     1325
   36.350     1305
   36.500     1274
   36.650     1461
   36.800     1412
   36.950     1236
   37.100     1292
   37.250     1305
   37.400     1389
   37.550     1389
   37.700     1319
   37.850     1329
   38.000     1421
   38.150     1299
   38.300     1295
   38.450     1285
   38.600     1240
   38.750     1265
   38.900     1288
   39.050     1301
   39.200     1296
   39.350     1275
   39.500     1277
   39.650     1204
   39.800     1303
   39.950     1275
   40.100     1301
   40.250     1234
   40.400     1248
   40.550     1526
   40.700     1339
   40.850     1198
   41.000     1255
   41.150     1296
   41.300     1236
   41.450     1325
   41.600     1448
   41.750     1448
   41.900     1342
   42.050     1328
   42.200     1345
   42.350     1323
   42.500     1288
   42.650     1236
   42.800     1256
   42.950     1267
   43.100     1261
   43.250     1280
   43.400     1291
   43.550     1303
   43.700     1228
   43.850     1238
   43.985     1211