File: data/MIL-88B_101/PXRD/PXRD_MIL-53-Dry_Cu-Kα1_capillary-0.7mm.xyd
    2.000      225
    2.150      258
    2.300      245
    2.450      242
    2.600      240
    2.750      239
    2.900      256
    3.050      247
    3.200      248
    3.350      224
    3.500      239
    3.650      251
    3.800      238
    3.950      227
    4.100      250
    4.250      230
    4.400      224
    4.550      242
    4.700      247
    4.850      241
    5.000      252
    5.150      241
    5.300      243
    5.450      242
    5.600      262
    5.750      214
    5.900      237
    6.050      279
    6.200      273
    6.350      259
    6.500      297
    6.650      324
    6.800      321
    6.950      274
    7.100      285
    7.250      235
    7.400      258
    7.550      228
    7.700      235
    7.850      218
    8.000      244
    8.150      249
    8.300      240
    8.450      233
    8.600      261
    8.750      288
    8.900      378
    9.050      690
    9.200      449
    9.350      309
    9.500      260
    9.650      247
    9.800      246
    9.950      204
   10.100      242
   10.250      252
   10.400      239
   10.550      239
   10.700      227
   10.850      236
   11.000      246
   11.150      220
   11.300      250
   11.450      239
   11.600      221
   11.750      222
   11.900      231
   12.050      263
   12.200      224
   12.350      241
   12.500      243
   12.650      219
   12.800      240
   12.950      250
   13.100      313
   13.250      272
   13.400      369
   13.550      569
   13.700      465
   13.850      334
   14.000      280
   14.150      241
   14.300      265
   14.450      274
   14.600      259
   14.750      251
   14.900      249
   15.050      239
   15.200      232
   15.350      224
   15.500      250
   15.650      241
   15.800      231
   15.950      234
   16.100      238
   16.250      232
   16.400      255
   16.550      233
   16.700      234
   16.850      254
   17.000      261
   17.150      242
   17.300      253
   17.450      260
   17.600      266
   17.750      309
   17.900      401
   18.050      312
   18.200      310
   18.350      405
   18.500      374
   18.650      285
   18.800      317
   18.950      312
   19.100      286
   19.250      247
   19.400      252
   19.550      257
   19.700      236
   19.850      237
   20.000      256
   20.150      235
   20.300      248
   20.450      268
   20.600      272
   20.750      271
   20.900      266
   21.050      241
   21.200      234
   21.350      271
   21.500      278
   21.650      264
   21.800      261
   21.950      218
   22.100      237
   22.250      271
   22.400      271
   22.550      250
   22.700      244
   22.850      268
   23.000      259
   23.150      227
   23.300      264
   23.450      247
   23.600      247
   23.750      255
   23.900      232
   24.050      250
   24.200      257
   24.350      228
   24.500      212
   24.650      213
   24.800      248
   24.950      230
   25.100      254
   25.250      256
   25.400      265
   25.550      235
   25.700      237
   25.850      268
   26.000      255
   26.150      269
   26.300      240
   26.450      272
   26.600      256
   26.750      273
   26.900      286
   27.050      248
   27.200      261
   27.350      270
   27.500      266
   27.650      246
   27.800      253
   27.950      230
   28.100      239
   28.250      248
   28.400      257
   28.550      270
   28.700      257
   28.850      263
   29.000      265
   29.150      250
   29.300      251
   29.450      270
   29.600      273
   29.750      238
   29.900      223
   30.050      279
   30.200      269
   30.350      272
   30.500      251
   30.650      235
   30.800      241
   30.950      218
   31.100      268
   31.250      235
   31.400      243
   31.550      227
   31.700      215
   31.850      241
   32.000      238
   32.150      237
   32.300      277
   32.450      256
   32.600      261
   32.750      263
   32.900      280
   33.050      260
   33.200      265
   33.350      257
   33.500      264
   33.650      251
   33.800      241
   33.950      233
   34.100      238
   34.250      239
   34.400      255
   34.550      261
   34.700      249
   34.850      235
   35.000      251
   35.150      243
   35.300      262
   35.450      272
   35.600      251
   35.750      264
   35.900      236
   36.050      231
   36.200      266
   36.350      243
   36.500      234
   36.650      250
   36.800      233
   36.950      226
   37.100      279
   37.250      228
   37.400      248
   37.550      225
   37.700      212
   37.850      246
   38.000      233
   38.150      248
   38.300      248
   38.450      225
   38.600      256
   38.750      236
   38.900      233
   39.050      257
   39.200      258
   39.350      280
   39.500      240
   39.650      252
   39.800      257
   39.950      210
   40.100      217
   40.250      235
   40.400      227
   40.550      254
   40.700      292
   40.850      240
   41.000      271
   41.150      252
   41.300      279
   41.450      252
   41.600      236
   41.750      233
   41.900      243
   42.050      262
   42.200      286
   42.350      254
   42.500      238
   42.650      226
   42.800      230
   42.950      247
   43.100      276
   43.250      213
   43.400      259
   43.550      280
   43.700      211
   43.850      252
   43.985      242