File: data/MIL-88B_101/PXRD/PXRD_S-13_Cu-Kα1_capillary-0.7mm.xyd
    2.000     1479
    2.150     1565
    2.300     1519
    2.450     1691
    2.600     1808
    2.750     1816
    2.900     1775
    3.050     2197
    3.200     3126
    3.350     1923
    3.500     1442
    3.650     1410
    3.800     1514
    3.950     1403
    4.100     1436
    4.250     1416
    4.400     1383
    4.550     1397
    4.700     1613
    4.850     1458
    5.000     1998
    5.150     1319
    5.300     1424
    5.450     1556
    5.600     1407
    5.750     1898
    5.900     1253
    6.050     1338
    6.200     1311
    6.350     1301
    6.500     1337
    6.650     1361
    6.800     1474
    6.950     1327
    7.100     1443
    7.250     1370
    7.400     1377
    7.550     1378
    7.700     1404
    7.850     1543
    8.000     1565
    8.150     1674
    8.300     2078
    8.450     1969
    8.600     1894
    8.750     2578
    8.900     3821
    9.050     2279
    9.200     4589
    9.350     1839
    9.500     2318
    9.650     1592
    9.800     1613
    9.950     1892
   10.100     1979
   10.250     1553
   10.400     1527
   10.550     1559
   10.700     1624
   10.850     1645
   11.000     1691
   11.150     1671
   11.300     1610
   11.450     1644
   11.600     1698
   11.750     1669
   11.900     1618
   12.050     1670
   12.200     1745
   12.350     2094
   12.500     2321
   12.650     1764
   12.800     1823
   12.950     1766
   13.100     1909
   13.250     1894
   13.400     1864
   13.550     1959
   13.700     2140
   13.850     2259
   14.000     1940
   14.150     2069
   14.300     2086
   14.450     2109
   14.600     2076
   14.750     2147
   14.900     2266
   15.050     2294
   15.200     2324
   15.350     2392
   15.500     2556
   15.650     2441
   15.800     2633
   15.950     3162
   16.100     2991
   16.250     3046
   16.400     3156
   16.550     3147
   16.700     3060
   16.850     3337
   17.000     3192
   17.150     3370
   17.300     3330
   17.450     3522
   17.600     3625
   17.750     3855
   17.900     3582
   18.050     3451
   18.200     3653
   18.350     3768
   18.500     4365
   18.650     6542
   18.800     4082
   18.950     4051
   19.100     4161
   19.250     4521
   19.400     3908
   19.550     4175
   19.700     3963
   19.850     3943
   20.000     3876
   20.150     3965
   20.300     3783
   20.450     3837
   20.600     3597
   20.750     3623
   20.900     3895
   21.050     3768
   21.200     4070
   21.350     3739
   21.500     3785
   21.650     4071
   21.800     4374
   21.950     3414
   22.100     3566
   22.250     3312
   22.400     3295
   22.550     3365
   22.700     3162
   22.850     3041
   23.000     3068
   23.150     3114
   23.300     3217
   23.450     3126
   23.600     2942
   23.750     3177
   23.900     2928
   24.050     2888
   24.200     2939
   24.350     2825
   24.500     2924
   24.650     2881
   24.800     2919
   24.950     2859
   25.100     3051
   25.250     2705
   25.400     2678
   25.550     2818
   25.700     2957
   25.850     2834
   26.000     3048
   26.150     2658
   26.300     2600
   26.450     2627
   26.600     2444
   26.750     2467
   26.900     2497
   27.050     2503
   27.200     2494
   27.350     2438
   27.500     2527
   27.650     2436
   27.800     2570
   27.950     2535
   28.100     2713
   28.250     2658
   28.400     2356
   28.550     2265
   28.700     2332
   28.850     2282
   29.000     2259
   29.150     2231
   29.300     2266
   29.450     2302
   29.600     2326
   29.750     2340
   29.900     2057
   30.050     2040
   30.200     2161
   30.350     2007
   30.500     2108
   30.650     2223
   30.800     2232
   30.950     2076
   31.100     2150
   31.250     2023
   31.400     2027
   31.550     2071
   31.700     1911
   31.850     1915
   32.000     1878
   32.150     1909
   32.300     2071
   32.450     2090
   32.600     2003
   32.750     1761
   32.900     1933
   33.050     1805
   33.200     1859
   33.350     1879
   33.500     1912
   33.650     1686
   33.800     1844
   33.950     1781
   34.100     1967
   34.250     1758
   34.400     1801
   34.550     1659
   34.700     1629
   34.850     1569
   35.000     1676
   35.150     1630
   35.300     1659
   35.450     1601
   35.600     1585
   35.750     1622
   35.900     1482
   36.050     1486
   36.200     1554
   36.350     1479
   36.500     1493
   36.650     1505
   36.800     1656
   36.950     1510
   37.100     1547
   37.250     1473
   37.400     1559
   37.550     1600
   37.700     1521
   37.850     1584
   38.000     1529
   38.150     1502
   38.300     1469
   38.450     1473
   38.600     1416
   38.750     1416
   38.900     1486
   39.050     1411
   39.200     1448
   39.350     1438
   39.500     1507
   39.650     1421
   39.800     1456
   39.950     1394
   40.100     1549
   40.250     1411
   40.400     1369
   40.550     1601
   40.700     1485
   40.850     1396
   41.000     1450
   41.150     1371
   41.300     1426
   41.450     1487
   41.600     1564
   41.750     1588
   41.900     1470
   42.050     1447
   42.200     1457
   42.350     1382
   42.500     1468
   42.650     1385
   42.800     1405
   42.950     1365
   43.100     1413
   43.250     1411
   43.400     1359
   43.550     1476
   43.700     1420
   43.850     1352
   43.985     1327