File: data/MIL-88B_101/PXRD/PXRD_S-18_Cu-Kα1_capillary-0.7mm_MIL-101-Water.xyd
    2.000      197
    2.150      187
    2.300      204
    2.450      188
    2.600      220
    2.750      221
    2.900      202
    3.050      253
    3.200      389
    3.350      229
    3.500      149
    3.650      185
    3.800      203
    3.950      145
    4.100      180
    4.250      155
    4.400      165
    4.550      159
    4.700      177
    4.850      166
    5.000      212
    5.150      167
    5.300      151
    5.450      166
    5.600      175
    5.750      218
    5.900      161
    6.050      136
    6.200      164
    6.350      151
    6.500      151
    6.650      152
    6.800      162
    6.950      158
    7.100      178
    7.250      149
    7.400      135
    7.550      137
    7.700      151
    7.850      142
    8.000      159
    8.150      176
    8.300      243
    8.450      252
    8.600      161
    8.750      285
    8.900      439
    9.050      170
    9.200      173
    9.350      177
    9.500      148
    9.650      152
    9.800      177
    9.950      209
   10.100      183
   10.250      161
   10.400      135
   10.550      152
   10.700      166
   10.850      143
   11.000      150
   11.150      150
   11.300      148
   11.450      167
   11.600      158
   11.750      176
   11.900      141
   12.050      137
   12.200      136
   12.350      141
   12.500      152
   12.650      137
   12.800      168
   12.950      145
   13.100      151
   13.250      166
   13.400      150
   13.550      180
   13.700      157
   13.850      165
   14.000      165
   14.150      146
   14.300      155
   14.450      155
   14.600      164
   14.750      143
   14.900      164
   15.050      159
   15.200      167
   15.350      193
   15.500      167
   15.650      179
   15.800      170
   15.950      181
   16.100      205
   16.250      204
   16.400      182
   16.550      194
   16.700      201
   16.850      200
   17.000      208
   17.150      200
   17.300      223
   17.450      211
   17.600      235
   17.750      237
   17.900      194
   18.050      226
   18.200      207
   18.350      213
   18.500      235
   18.650      237
   18.800      254
   18.950      249
   19.100      266
   19.250      246
   19.400      221
   19.550      239
   19.700      263
   19.850      263
   20.000      266
   20.150      269
   20.300      279
   20.450      281
   20.600      248
   20.750      274
   20.900      288
   21.050      267
   21.200      304
   21.350      296
   21.500      301
   21.650      279
   21.800      297
   21.950      296
   22.100      315
   22.250      285
   22.400      299
   22.550      314
   22.700      289
   22.850      296
   23.000      314
   23.150      340
   23.300      334
   23.450      353
   23.600      334
   23.750      334
   23.900      316
   24.050      343
   24.200      355
   24.350      334
   24.500      361
   24.650      338
   24.800      372
   24.950      360
   25.100      388
   25.250      389
   25.400      376
   25.550      364
   25.700      386
   25.850      366
   26.000      359
   26.150      383
   26.300      347
   26.450      367
   26.600      360
   26.750      383
   26.900      399
   27.050      361
   27.200      357
   27.350      387
   27.500      401
   27.650      357
   27.800      408
   27.950      383
   28.100      414
   28.250      362
   28.400      392
   28.550      401
   28.700      368
   28.850      350
   29.000      357
   29.150      377
   29.300      404
   29.450      361
   29.600      392
   29.750      352
   29.900      352
   30.050      318
   30.200      346
   30.350      328
   30.500      335
   30.650      342
   30.800      350
   30.950      358
   31.100      390
   31.250      334
   31.400      310
   31.550      315
   31.700      365
   31.850      341
   32.000      316
   32.150      321
   32.300      314
   32.450      327
   32.600      296
   32.750      300
   32.900      297
   33.050      312
   33.200      309
   33.350      316
   33.500      308
   33.650      273
   33.800      268
   33.950      279
   34.100      299
   34.250      282
   34.400      284
   34.550      268
   34.700      241
   34.850      275
   35.000      287
   35.150      262
   35.300      262
   35.450      294
   35.600      258
   35.750      275
   35.900      238
   36.050      252
   36.200      236
   36.350      241
   36.500      231
   36.650      218
   36.800      264
   36.950      248
   37.100      256
   37.250      227
   37.400      236
   37.550      258
   37.700      242
   37.850      251
   38.000      236
   38.150      246
   38.300      233
   38.450      241
   38.600      223
   38.750      232
   38.900      240
   39.050      248
   39.200      261
   39.350      257
   39.500      240
   39.650      226
   39.800      223
   39.950      210
   40.100      237
   40.250      223
   40.400      225
   40.550      258
   40.700      230
   40.850      199
   41.000      231
   41.150      242
   41.300      250
   41.450      252
   41.600      237
   41.750      233
   41.900      203
   42.050      223
   42.200      203
   42.350      216
   42.500      215
   42.650      209
   42.800      210
   42.950      207
   43.100      228
   43.250      226
   43.400      210
   43.550      231
   43.700      226
   43.850      201
   43.985      171