File: data/MIL-88B_101/PXRD/PXRD_S-18_Cu-Kα1_capillary-0.7mm_MIL-101-Dry.xyd
    2.000     1201
    2.150     1181
    2.300     1101
    2.450     1087
    2.600     1029
    2.750     1032
    2.900     1120
    3.050     1315
    3.200     1906
    3.350     1303
    3.500      949
    3.650      927
    3.800     1068
    3.950      864
    4.100      976
    4.250     1014
    4.400      824
    4.550      897
    4.700     1062
    4.850      922
    5.000     1353
    5.150      846
    5.300      920
    5.450     1111
    5.600      989
    5.750     1673
    5.900      810
    6.050      891
    6.200      913
    6.350      906
    6.500      849
    6.650      852
    6.800      876
    6.950      895
    7.100     1036
    7.250      878
    7.400      928
    7.550      904
    7.700      900
    7.850      937
    8.000     1049
    8.150     1155
    8.300     1922
    8.450     1868
    8.600     1196
    8.750     3010
    8.900     4703
    9.050     1064
    9.200     1265
    9.350     1187
    9.500     1074
    9.650     1074
    9.800      936
    9.950     1114
   10.100     1218
   10.250      961
   10.400      838
   10.550      905
   10.700      937
   10.850      807
   11.000      886
   11.150      885
   11.300      873
   11.450      819
   11.600      841
   11.750      735
   11.900      726
   12.050      770
   12.200      774
   12.350      838
   12.500      828
   12.650      714
   12.800      799
   12.950      777
   13.100      833
   13.250      759
   13.400      778
   13.550      744
   13.700      733
   13.850      823
   14.000      803
   14.150      772
   14.300      761
   14.450      755
   14.600      735
   14.750      770
   14.900      814
   15.050      832
   15.200      781
   15.350      859
   15.500      853
   15.650      802
   15.800      847
   15.950      908
   16.100      969
   16.250     1158
   16.400     1034
   16.550      927
   16.700     1014
   16.850      912
   17.000      990
   17.150      885
   17.300      952
   17.450     1017
   17.600      995
   17.750     1213
   17.900      936
   18.050      795
   18.200      907
   18.350      942
   18.500      957
   18.650     1311
   18.800     1178
   18.950      926
   19.100      899
   19.250     1006
   19.400      951
   19.550      868
   19.700      873
   19.850      891
   20.000      925
   20.150      901
   20.300      844
   20.450      884
   20.600      819
   20.750      877
   20.900      909
   21.050      944
   21.200      974
   21.350      908
   21.500     1033
   21.650      884
   21.800     1058
   21.950      864
   22.100      885
   22.250      885
   22.400      911
   22.550      946
   22.700      904
   22.850      872
   23.000      906
   23.150      869
   23.300      933
   23.450     1063
   23.600      903
   23.750      929
   23.900      981
   24.050      876
   24.200      966
   24.350      868
   24.500     1062
   24.650      943
   24.800      950
   24.950      841
   25.100     1027
   25.250      977
   25.400      978
   25.550      801
   25.700      843
   25.850      837
   26.000      841
   26.150      888
   26.300      857
   26.450      888
   26.600      826
   26.750      868
   26.900      821
   27.050      835
   27.200      865
   27.350      837
   27.500      849
   27.650      815
   27.800      932
   27.950      818
   28.100      785
   28.250      910
   28.400      854
   28.550      872
   28.700      800
   28.850      885
   29.000      806
   29.150      811
   29.300      846
   29.450      811
   29.600      760
   29.750      793
   29.900      782
   30.050      787
   30.200      892
   30.350      785
   30.500      721
   30.650      786
   30.800      743
   30.950      740
   31.100      883
   31.250      790
   31.400      765
   31.550      752
   31.700      760
   31.850      725
   32.000      744
   32.150      792
   32.300      770
   32.450      795
   32.600      827
   32.750      828
   32.900      808
   33.050      795
   33.200      799
   33.350      737
   33.500      799
   33.650      728
   33.800      772
   33.950      742
   34.100      715
   34.250      723
   34.400      764
   34.550      770
   34.700      708
   34.850      699
   35.000      728
   35.150      730
   35.300      703
   35.450      735
   35.600      681
   35.750      709
   35.900      650
   36.050      661
   36.200      662
   36.350      676
   36.500      679
   36.650      604
   36.800      711
   36.950      660
   37.100      666
   37.250      671
   37.400      651
   37.550      642
   37.700      671
   37.850      645
   38.000      669
   38.150      654
   38.300      648
   38.450      640
   38.600      631
   38.750      663
   38.900      635
   39.050      666
   39.200      645
   39.350      672
   39.500      704
   39.650      641
   39.800      686
   39.950      660
   40.100      630
   40.250      690
   40.400      686
   40.550      696
   40.700      718
   40.850      638
   41.000      685
   41.150      709
   41.300      668
   41.450      743
   41.600      725
   41.750      654
   41.900      623
   42.050      623
   42.200      737
   42.350      688
   42.500      690
   42.650      634
   42.800      683
   42.950      662
   43.100      760
   43.250      690
   43.400      656
   43.550      671
   43.700      639
   43.850      698
   43.985      615