File: data/MIL-88B_101/PXRD/PXRD_S-8_Cu-Kα1_capillary-0.7mm.xyd
    2.000     1671
    2.150     1688
    2.300     1551
    2.450     1545
    2.600     1491
    2.750     1449
    2.900     1494
    3.050     1492
    3.200     1416
    3.350     1371
    3.500     1470
    3.650     1371
    3.800     1360
    3.950     1316
    4.100     1369
    4.250     1359
    4.400     1344
    4.550     1350
    4.700     1352
    4.850     1329
    5.000     1338
    5.150     1374
    5.300     1354
    5.450     1366
    5.600     1292
    5.750     1358
    5.900     1321
    6.050     1325
    6.200     1413
    6.350     1313
    6.500     1320
    6.650     1270
    6.800     1432
    6.950     1235
    7.100     1338
    7.250     1324
    7.400     1458
    7.550     1488
    7.700     1331
    7.850     1372
    8.000     1391
    8.150     1396
    8.300     1438
    8.450     1429
    8.600     1491
    8.750     1791
    8.900     2589
    9.050     4314
    9.200     7151
    9.350     5562
    9.500     3571
    9.650     1903
    9.800     1690
    9.950     1474
   10.100     1547
   10.250     1511
   10.400     1572
   10.550     1637
   10.700     1732
   10.850     1559
   11.000     1465
   11.150     1457
   11.300     1379
   11.450     1456
   11.600     1351
   11.750     1418
   11.900     1313
   12.050     1442
   12.200     1571
   12.350     2076
   12.500     2915
   12.650     1407
   12.800     1429
   12.950     1323
   13.100     1440
   13.250     1359
   13.400     1398
   13.550     1424
   13.700     1489
   13.850     1867
   14.000     1326
   14.150     1364
   14.300     1401
   14.450     1389
   14.600     1397
   14.750     1388
   14.900     1451
   15.050     1483
   15.200     1475
   15.350     1399
   15.500     1504
   15.650     1464
   15.800     1584
   15.950     1903
   16.100     1872
   16.250     1563
   16.400     2009
   16.550     2053
   16.700     1686
   16.850     1944
   17.000     1559
   17.150     1549
   17.300     1515
   17.450     1529
   17.600     1458
   17.750     1519
   17.900     1592
   18.050     1594
   18.200     1747
   18.350     1678
   18.500     2001
   18.650     4073
   18.800     3200
   18.950     1618
   19.100     1762
   19.250     2544
   19.400     1667
   19.550     1683
   19.700     1612
   19.850     1580
   20.000     1555
   20.150     1612
   20.300     1630
   20.450     1622
   20.600     1648
   20.750     1774
   20.900     1966
   21.050     1736
   21.200     1945
   21.350     2025
   21.500     1777
   21.650     1877
   21.800     3226
   21.950     1961
   22.100     1708
   22.250     1617
   22.400     1714
   22.550     1645
   22.700     1684
   22.850     1676
   23.000     1714
   23.150     1664
   23.300     1742
   23.450     1817
   23.600     1608
   23.750     1779
   23.900     1563
   24.050     1567
   24.200     1633
   24.350     1505
   24.500     1605
   24.650     1609
   24.800     1631
   24.950     1506
   25.100     1649
   25.250     1488
   25.400     1585
   25.550     1596
   25.700     1594
   25.850     2101
   26.000     1738
   26.150     1894
   26.300     1454
   26.450     1445
   26.600     1386
   26.750     1514
   26.900     1456
   27.050     1493
   27.200     1467
   27.350     1435
   27.500     1479
   27.650     1376
   27.800     1512
   27.950     1610
   28.100     1750
   28.250     1958
   28.400     1553
   28.550     1381
   28.700     1333
   28.850     1478
   29.000     1397
   29.150     1381
   29.300     1395
   29.450     1407
   29.600     1538
   29.750     1480
   29.900     1353
   30.050     1362
   30.200     1395
   30.350     1341
   30.500     1347
   30.650     1333
   30.800     1545
   30.950     1273
   31.100     1394
   31.250     1206
   31.400     1352
   31.550     1328
   31.700     1268
   31.850     1239
   32.000     1290
   32.150     1362
   32.300     1465
   32.450     1722
   32.600     1430
   32.750     1614
   32.900     1404
   33.050     1411
   33.200     1299
   33.350     1493
   33.500     1457
   33.650     1233
   33.800     1295
   33.950     1415
   34.100     1440
   34.250     1539
   34.400     1476
   34.550     1397
   34.700     1366
   34.850     1283
   35.000     1317
   35.150     1295
   35.300     1353
   35.450     1331
   35.600     1284
   35.750     1270
   35.900     1291
   36.050     1264
   36.200     1322
   36.350     1319
   36.500     1239
   36.650     1201
   36.800     1391
   36.950     1291
   37.100     1230
   37.250     1142
   37.400     1298
   37.550     1295
   37.700     1359
   37.850     1285
   38.000     1373
   38.150     1438
   38.300     1282
   38.450     1273
   38.600     1243
   38.750     1245
   38.900     1280
   39.050     1332
   39.200     1225
   39.350     1211
   39.500     1301
   39.650     1139
   39.800     1179
   39.950     1186
   40.100     1334
   40.250     1320
   40.400     1244
   40.550     1562
   40.700     1384
   40.850     1325
   41.000     1289
   41.150     1243
   41.300     1292
   41.450     1332
   41.600     1413
   41.750     1790
   41.900     1279
   42.050     1393
   42.200     1570
   42.350     1412
   42.500     1373
   42.650     1360
   42.800     1289
   42.950     1155
   43.100     1273
   43.250     1171
   43.400     1376
   43.550     1299
   43.700     1274
   43.850     1271
   43.985     1213