File: data/MIL-88B_101/PXRD/PXRD_S-4_Cu-Kα1_capillary-0.7mm.xyd
    2.000     1543
    2.150     1583
    2.300     1556
    2.450     1525
    2.600     1491
    2.750     1458
    2.900     1507
    3.050     1535
    3.200     1569
    3.350     1529
    3.500     1550
    3.650     1416
    3.800     1402
    3.950     1471
    4.100     1474
    4.250     1428
    4.400     1451
    4.550     1451
    4.700     1453
    4.850     1432
    5.000     1415
    5.150     1434
    5.300     1360
    5.450     1427
    5.600     1378
    5.750     1521
    5.900     1367
    6.050     1359
    6.200     1372
    6.350     1361
    6.500     1342
    6.650     1403
    6.800     1400
    6.950     1310
    7.100     1415
    7.250     1383
    7.400     1397
    7.550     1404
    7.700     1290
    7.850     1432
    8.000     1406
    8.150     1375
    8.300     1410
    8.450     1393
    8.600     1366
    8.750     1359
    8.900     1634
    9.050     2221
    9.200     4286
    9.350     9239
    9.500     2481
    9.650     1407
    9.800     1387
    9.950     1359
   10.100     1495
   10.250     1396
   10.400     1381
   10.550     1453
   10.700     1440
   10.850     1422
   11.000     1394
   11.150     1479
   11.300     1459
   11.450     1538
   11.600     1436
   11.750     1442
   11.900     1427
   12.050     1430
   12.200     1491
   12.350     1741
   12.500     3530
   12.650     1354
   12.800     1479
   12.950     1420
   13.100     1409
   13.250     1430
   13.400     1416
   13.550     1403
   13.700     1412
   13.850     1572
   14.000     1412
   14.150     1444
   14.300     1460
   14.450     1475
   14.600     1399
   14.750     1465
   14.900     1548
   15.050     1534
   15.200     1571
   15.350     1533
   15.500     1640
   15.650     1498
   15.800     1558
   15.950     1647
   16.100     2529
   16.250     1553
   16.400     1752
   16.550     1744
   16.700     1677
   16.850     1739
   17.000     1732
   17.150     1757
   17.300     1830
   17.450     1749
   17.600     1659
   17.750     1792
   17.900     1688
   18.050     1681
   18.200     1784
   18.350     1739
   18.500     1863
   18.650     2368
   18.800     5518
   18.950     1871
   19.100     2115
   19.250     2811
   19.400     1949
   19.550     1931
   19.700     1930
   19.850     2053
   20.000     1891
   20.150     2027
   20.300     1981
   20.450     2020
   20.600     1931
   20.750     2028
   20.900     2327
   21.050     2565
   21.200     4014
   21.350     4369
   21.500     2369
   21.650     2016
   21.800     2353
   21.950     3309
   22.100     2086
   22.250     1824
   22.400     1886
   22.550     1839
   22.700     1796
   22.850     1851
   23.000     1827
   23.150     1765
   23.300     1843
   23.450     2031
   23.600     2347
   23.750     2309
   23.900     1802
   24.050     1603
   24.200     1644
   24.350     1545
   24.500     1533
   24.650     1575
   24.800     1628
   24.950     1488
   25.100     1589
   25.250     1604
   25.400     1492
   25.550     1472
   25.700     1422
   25.850     1781
   26.000     1365
   26.150     1769
   26.300     1364
   26.450     1351
   26.600     1308
   26.750     1273
   26.900     1327
   27.050     1353
   27.200     1384
   27.350     1282
   27.500     1354
   27.650     1260
   27.800     1386
   27.950     1385
   28.100     1468
   28.250     1336
   28.400     1686
   28.550     1176
   28.700     1114
   28.850     1147
   29.000     1217
   29.150     1224
   29.300     1270
   29.450     1178
   29.600     1152
   29.750     1363
   29.900     1127
   30.050     1096
   30.200     1166
   30.350     1064
   30.500      975
   30.650     1051
   30.800     1236
   30.950     1199
   31.100     1092
   31.250     1028
   31.400     1014
   31.550     1000
   31.700      966
   31.850     1029
   32.000     1020
   32.150     1007
   32.300     1039
   32.450     1229
   32.600     1065
   32.750     1100
   32.900     1171
   33.050     1055
   33.200     1011
   33.350     1055
   33.500     1010
   33.650      989
   33.800      987
   33.950      942
   34.100     1030
   34.250     1037
   34.400     1158
   34.550     1159
   34.700      919
   34.850      954
   35.000      982
   35.150      969
   35.300      994
   35.450      920
   35.600      951
   35.750      984
   35.900     1033
   36.050     1031
   36.200      970
   36.350      926
   36.500      910
   36.650      948
   36.800      958
   36.950      896
   37.100      942
   37.250      925
   37.400      881
   37.550      930
   37.700      938
   37.850      938
   38.000      889
   38.150     1031
   38.300      913
   38.450      892
   38.600      886
   38.750      884
   38.900      888
   39.050      902
   39.200      912
   39.350      873
   39.500      934
   39.650      847
   39.800      886
   39.950      892
   40.100      897
   40.250      899
   40.400      908
   40.550     1069
   40.700      890
   40.850      953
   41.000      895
   41.150      875
   41.300      930
   41.450      883
   41.600      869
   41.750     1259
   41.900      803
   42.050      860
   42.200      935
   42.350     1067
   42.500      887
   42.650      829
   42.800      912
   42.950      871
   43.100      874
   43.250      802
   43.400      891
   43.550      936
   43.700      851
   43.850      838
   43.985      847