File: data/MIL-88B_101/PXRD/PXRD_S-17_Cu-Kα1_capillary-0.7mm.xyd
    2.000       87
    2.150       95
    2.300       96
    2.450       88
    2.600       99
    2.750      107
    2.900      125
    3.050      139
    3.200      153
    3.350      120
    3.500      107
    3.650       94
    3.800      110
    3.950       97
    4.100       88
    4.250      106
    4.400      104
    4.550      104
    4.700      100
    4.850      107
    5.000      116
    5.150       91
    5.300       82
    5.450      103
    5.600       82
    5.750      104
    5.900       95
    6.050       97
    6.200       89
    6.350       95
    6.500       88
    6.650       62
    6.800      104
    6.950      113
    7.100      101
    7.250       80
    7.400      102
    7.550       92
    7.700       87
    7.850      102
    8.000       90
    8.150      110
    8.300      110
    8.450      108
    8.600      131
    8.750      159
    8.900      211
    9.050      232
    9.200      499
    9.350      173
    9.500      224
    9.650      111
    9.800      112
    9.950      104
   10.100      123
   10.250      104
   10.400      100
   10.550       99
   10.700       99
   10.850      105
   11.000      126
   11.150      116
   11.300       99
   11.450      105
   11.600      102
   11.750       90
   11.900       93
   12.050      102
   12.200      130
   12.350      184
   12.500      202
   12.650      121
   12.800      108
   12.950      106
   13.100      126
   13.250      129
   13.400      118
   13.550      107
   13.700      134
   13.850      158
   14.000      120
   14.150      112
   14.300      119
   14.450      118
   14.600      126
   14.750      121
   14.900      125
   15.050      128
   15.200      133
   15.350      134
   15.500      142
   15.650      121
   15.800      154
   15.950      196
   16.100      138
   16.250      150
   16.400      200
   16.550      179
   16.700      147
   16.850      177
   17.000      132
   17.150      160
   17.300      159
   17.450      163
   17.600      140
   17.750      165
   17.900      141
   18.050      154
   18.200      162
   18.350      157
   18.500      206
   18.650      532
   18.800      183
   18.950      148
   19.100      187
   19.250      263
   19.400      173
   19.550      153
   19.700      167
   19.850      148
   20.000      146
   20.150      165
   20.300      144
   20.450      147
   20.600      148
   20.750      177
   20.900      184
   21.050      162
   21.200      219
   21.350      155
   21.500      168
   21.650      204
   21.800      320
   21.950      172
   22.100      168
   22.250      146
   22.400      146
   22.550      156
   22.700      158
   22.850      164
   23.000      155
   23.150      156
   23.300      178
   23.450      153
   23.600      142
   23.750      152
   23.900      176
   24.050      156
   24.200      148
   24.350      115
   24.500      155
   24.650      144
   24.800      142
   24.950      134
   25.100      145
   25.250      140
   25.400      139
   25.550      142
   25.700      176
   25.850      154
   26.000      184
   26.150      149
   26.300      134
   26.450      142
   26.600      138
   26.750      124
   26.900      135
   27.050      163
   27.200      152
   27.350      119
   27.500      134
   27.650      128
   27.800      131
   27.950      148
   28.100      155
   28.250      175
   28.400      126
   28.550      133
   28.700      130
   28.850      135
   29.000      120
   29.150      131
   29.300      122
   29.450      150
   29.600      133
   29.750      124
   29.900      120
   30.050      117
   30.200      134
   30.350      135
   30.500      136
   30.650      132
   30.800      134
   30.950      129
   31.100      149
   31.250      110
   31.400      132
   31.550      125
   31.700      119
   31.850      115
   32.000      133
   32.150      119
   32.300      118
   32.450      148
   32.600      154
   32.750      129
   32.900      111
   33.050      124
   33.200      118
   33.350      147
   33.500      112
   33.650      102
   33.800      118
   33.950      125
   34.100      136
   34.250      107
   34.400      131
   34.550      116
   34.700      103
   34.850      106
   35.000      104
   35.150      106
   35.300      105
   35.450      133
   35.600      111
   35.750       98
   35.900      111
   36.050      109
   36.200      111
   36.350      109
   36.500       93
   36.650      115
   36.800      114
   36.950       90
   37.100      131
   37.250       89
   37.400       96
   37.550      110
   37.700      107
   37.850      110
   38.000      134
   38.150      114
   38.300       99
   38.450       95
   38.600      114
   38.750      111
   38.900      114
   39.050      100
   39.200      105
   39.350      123
   39.500       99
   39.650      117
   39.800       94
   39.950      106
   40.100      109
   40.250      107
   40.400      105
   40.550      121
   40.700      110
   40.850      120
   41.000      130
   41.150      105
   41.300      109
   41.450      114
   41.600      133
   41.750      118
   41.900       97
   42.050      129
   42.200      119
   42.350      101
   42.500      116
   42.650       93
   42.800      100
   42.950      110
   43.100      130
   43.250      105
   43.400      113
   43.550      114
   43.700      115
   43.850      103
   43.985      106