File: data/MIL-88B_101/PXRD/PXRD_S-18_Cu-Kα1_capillary-0.7mm_MIL-101-DMF.xyd
    2.000      647
    2.150      721
    2.300      734
    2.450      888
    2.600     1181
    2.750     1153
    2.900     1066
    3.050     1556
    3.200     3019
    3.350     1471
    3.500      642
    3.650      679
    3.800      945
    3.950      641
    4.100      787
    4.250      718
    4.400      650
    4.550      698
    4.700      952
    4.850      801
    5.000     1523
    5.150      676
    5.300      690
    5.450      928
    5.600      788
    5.750     1329
    5.900      647
    6.050      606
    6.200      640
    6.350      627
    6.500      619
    6.650      585
    6.800      635
    6.950      642
    7.100      641
    7.250      689
    7.400      613
    7.550      639
    7.700      647
    7.850      666
    8.000      762
    8.150      912
    8.300     1489
    8.450     1311
    8.600      896
    8.750     1900
    8.900     3484
    9.050      669
    9.200      646
    9.350      766
    9.500      744
    9.650      786
    9.800      667
    9.950      990
   10.100     1118
   10.250      715
   10.400      687
   10.550      690
   10.700      797
   10.850      671
   11.000      756
   11.150      768
   11.300      720
   11.450      712
   11.600      810
   11.750      756
   11.900      685
   12.050      713
   12.200      666
   12.350      721
   12.500      717
   12.650      697
   12.800      754
   12.950      766
   13.100      825
   13.250      735
   13.400      786
   13.550      725
   13.700      792
   13.850      801
   14.000      795
   14.150      801
   14.300      796
   14.450      799
   14.600      822
   14.750      794
   14.900      908
   15.050      917
   15.200      890
   15.350      955
   15.500      990
   15.650      899
   15.800     1044
   15.950     1048
   16.100     1122
   16.250     1332
   16.400     1080
   16.550     1062
   16.700     1163
   16.850     1093
   17.000     1291
   17.150     1213
   17.300     1169
   17.450     1405
   17.600     1313
   17.750     1471
   17.900     1370
   18.050     1221
   18.200     1277
   18.350     1333
   18.500     1471
   18.650     1442
   18.800     1464
   18.950     1342
   19.100     1448
   19.250     1345
   19.400     1402
   19.550     1363
   19.700     1400
   19.850     1404
   20.000     1406
   20.150     1412
   20.300     1286
   20.450     1373
   20.600     1241
   20.750     1247
   20.900     1296
   21.050     1345
   21.200     1364
   21.350     1390
   21.500     1381
   21.650     1155
   21.800     1300
   21.950     1190
   22.100     1339
   22.250     1193
   22.400     1200
   22.550     1300
   22.700     1173
   22.850     1211
   23.000     1160
   23.150     1158
   23.300     1172
   23.450     1359
   23.600     1148
   23.750     1181
   23.900     1188
   24.050     1035
   24.200     1116
   24.350     1063
   24.500     1141
   24.650     1050
   24.800     1117
   24.950      987
   25.100     1205
   25.250     1049
   25.400     1087
   25.550      964
   25.700     1055
   25.850     1010
   26.000      982
   26.150     1020
   26.300      958
   26.450      942
   26.600      996
   26.750      930
   26.900      958
   27.050      968
   27.200     1046
   27.350      938
   27.500      977
   27.650      925
   27.800      993
   27.950      917
   28.100      971
   28.250      903
   28.400      985
   28.550      869
   28.700      878
   28.850      834
   29.000      923
   29.150      817
   29.300      843
   29.450      846
   29.600      819
   29.750      873
   29.900      840
   30.050      782
   30.200      833
   30.350      791
   30.500      795
   30.650      767
   30.800      816
   30.950      816
   31.100      822
   31.250      753
   31.400      769
   31.550      783
   31.700      774
   31.850      730
   32.000      688
   32.150      771
   32.300      759
   32.450      818
   32.600      765
   32.750      717
   32.900      777
   33.050      753
   33.200      743
   33.350      734
   33.500      780
   33.650      696
   33.800      737
   33.950      720
   34.100      712
   34.250      655
   34.400      686
   34.550      678
   34.700      616
   34.850      630
   35.000      657
   35.150      674
   35.300      662
   35.450      643
   35.600      640
   35.750      585
   35.900      604
   36.050      601
   36.200      587
   36.350      596
   36.500      606
   36.650      515
   36.800      581
   36.950      605
   37.100      613
   37.250      587
   37.400      599
   37.550      587
   37.700      599
   37.850      562
   38.000      545
   38.150      616
   38.300      587
   38.450      570
   38.600      555
   38.750      534
   38.900      590
   39.050      595
   39.200      586
   39.350      560
   39.500      597
   39.650      578
   39.800      570
   39.950      579
   40.100      606
   40.250      585
   40.400      570
   40.550      587
   40.700      579
   40.850      543
   41.000      629
   41.150      623
   41.300      559
   41.450      610
   41.600      607
   41.750      525
   41.900      571
   42.050      544
   42.200      594
   42.350      541
   42.500      558
   42.650      556
   42.800      592
   42.950      551
   43.100      586
   43.250      524
   43.400      569
   43.550      588
   43.700      535
   43.850      503
   43.985      526