File: data/MIL-88B_101/PXRD/PXRD_S-10_Cu-Kα1_capillary-0.7mm.xyd
    2.000     1544
    2.150     1620
    2.300     1633
    2.450     1768
    2.600     2068
    2.750     1970
    2.900     1910
    3.050     2380
    3.200     3929
    3.350     2164
    3.500     1388
    3.650     1292
    3.800     1473
    3.950     1286
    4.100     1404
    4.250     1319
    4.400     1222
    4.550     1376
    4.700     1588
    4.850     1413
    5.000     2092
    5.150     1242
    5.300     1346
    5.450     1531
    5.600     1492
    5.750     2034
    5.900     1238
    6.050     1192
    6.200     1262
    6.350     1194
    6.500     1233
    6.650     1232
    6.800     1253
    6.950     1224
    7.100     1301
    7.250     1283
    7.400     1232
    7.550     1262
    7.700     1249
    7.850     1386
    8.000     1538
    8.150     1737
    8.300     2352
    8.450     2253
    8.600     1832
    8.750     2980
    8.900     4579
    9.050     1432
    9.200     1598
    9.350     1469
    9.500     1617
    9.650     1552
    9.800     1457
    9.950     1786
   10.100     2026
   10.250     1432
   10.400     1389
   10.550     1501
   10.700     1568
   10.850     1428
   11.000     1598
   11.150     1589
   11.300     1471
   11.450     1512
   11.600     1567
   11.750     1520
   11.900     1477
   12.050     1454
   12.200     1540
   12.350     1455
   12.500     1537
   12.650     1557
   12.800     1688
   12.950     1618
   13.100     1697
   13.250     1626
   13.400     1609
   13.550     1697
   13.700     1700
   13.850     1773
   14.000     1681
   14.150     1776
   14.300     1771
   14.450     1835
   14.600     1839
   14.750     1769
   14.900     1895
   15.050     1894
   15.200     2020
   15.350     2103
   15.500     2043
   15.650     2054
   15.800     2195
   15.950     2313
   16.100     2483
   16.250     2595
   16.400     2288
   16.550     2434
   16.700     2547
   16.850     2373
   17.000     2639
   17.150     2772
   17.300     2716
   17.450     2947
   17.600     2953
   17.750     3108
   17.900     2965
   18.050     2822
   18.200     2939
   18.350     2969
   18.500     3147
   18.650     3423
   18.800     3319
   18.950     3202
   19.100     3364
   19.250     3129
   19.400     3148
   19.550     3265
   19.700     3303
   19.850     3296
   20.000     3201
   20.150     3222
   20.300     3082
   20.450     3131
   20.600     3049
   20.750     2990
   20.900     3132
   21.050     3189
   21.200     3145
   21.350     3198
   21.500     3153
   21.650     2915
   21.800     3035
   21.950     2820
   22.100     3090
   22.250     2718
   22.400     2726
   22.550     2971
   22.700     2732
   22.850     2639
   23.000     2648
   23.150     2613
   23.300     2587
   23.450     2767
   23.600     2602
   23.750     2637
   23.900     2503
   24.050     2376
   24.200     2507
   24.350     2362
   24.500     2482
   24.650     2309
   24.800     2425
   24.950     2273
   25.100     2358
   25.250     2224
   25.400     2204
   25.550     2043
   25.700     2136
   25.850     2144
   26.000     2065
   26.150     2114
   26.300     1995
   26.450     2022
   26.600     2000
   26.750     1933
   26.900     1955
   27.050     1917
   27.200     1943
   27.350     1879
   27.500     1965
   27.650     1774
   27.800     1970
   27.950     1762
   28.100     1865
   28.250     1701
   28.400     1770
   28.550     1768
   28.700     1749
   28.850     1621
   29.000     1680
   29.150     1759
   29.300     1692
   29.450     1656
   29.600     1583
   29.750     1619
   29.900     1573
   30.050     1543
   30.200     1552
   30.350     1461
   30.500     1551
   30.650     1549
   30.800     1626
   30.950     1531
   31.100     1517
   31.250     1391
   31.400     1508
   31.550     1394
   31.700     1356
   31.850     1388
   32.000     1395
   32.150     1459
   32.300     1341
   32.450     1446
   32.600     1465
   32.750     1312
   32.900     1422
   33.050     1386
   33.200     1332
   33.350     1393
   33.500     1373
   33.650     1293
   33.800     1338
   33.950     1341
   34.100     1331
   34.250     1235
   34.400     1231
   34.550     1209
   34.700     1212
   34.850     1181
   35.000     1275
   35.150     1190
   35.300     1231
   35.450     1161
   35.600     1127
   35.750     1165
   35.900     1142
   36.050     1079
   36.200     1159
   36.350     1115
   36.500     1059
   36.650     1089
   36.800     1197
   36.950     1102
   37.100     1155
   37.250     1103
   37.400     1088
   37.550     1067
   37.700     1115
   37.850     1058
   38.000     1058
   38.150     1084
   38.300     1082
   38.450     1057
   38.600     1026
   38.750      999
   38.900     1045
   39.050     1018
   39.200     1121
   39.350     1044
   39.500      992
   39.650      974
   39.800     1057
   39.950     1042
   40.100     1088
   40.250     1027
   40.400     1001
   40.550     1127
   40.700     1053
   40.850      989
   41.000     1062
   41.150     1103
   41.300     1031
   41.450     1093
   41.600     1014
   41.750      999
   41.900     1007
   42.050      995
   42.200     1043
   42.350      994
   42.500      997
   42.650      970
   42.800     1047
   42.950      952
   43.100     1123
   43.250     1034
   43.400      967
   43.550     1058
   43.700     1054
   43.850     1092
   43.985     1012