File: data/MIL-88B_101/PXRD/PXRD_S-9_Cu-Kα1_capillary-0.7mm.xyd
    2.000     2305
    2.150     2392
    2.300     2198
    2.450     2231
    2.600     2041
    2.750     2029
    2.900     2157
    3.050     2112
    3.200     1989
    3.350     1926
    3.500     2068
    3.650     1869
    3.800     1862
    3.950     1864
    4.100     2039
    4.250     1974
    4.400     2035
    4.550     2211
    4.700     2847
    4.850     1871
    5.000     2052
    5.150     1881
    5.300     1844
    5.450     1999
    5.600     1941
    5.750     2008
    5.900     1733
    6.050     1840
    6.200     1933
    6.350     1872
    6.500     1917
    6.650     1791
    6.800     1932
    6.950     1909
    7.100     1993
    7.250     1877
    7.400     1960
    7.550     2039
    7.700     1943
    7.850     2108
    8.000     2166
    8.150     2384
    8.300     2771
    8.450     2846
    8.600     2765
    8.750     4340
    8.900     5761
    9.050     4088
    9.200     5047
    9.350     3076
    9.500     4397
    9.650     3023
    9.800     2617
    9.950     2508
   10.100     2843
   10.250     2853
   10.400     2355
   10.550     2268
   10.700     2126
   10.850     1920
   11.000     2003
   11.150     2057
   11.300     2035
   11.450     1855
   11.600     1833
   11.750     1814
   11.900     1716
   12.050     1749
   12.200     1841
   12.350     1850
   12.500     1926
   12.650     1794
   12.800     1854
   12.950     1727
   13.100     1894
   13.250     1712
   13.400     1758
   13.550     1849
   13.700     1788
   13.850     1793
   14.000     1744
   14.150     1859
   14.300     1805
   14.450     1776
   14.600     1776
   14.750     1827
   14.900     2064
   15.050     2145
   15.200     2073
   15.350     1993
   15.500     1918
   15.650     1874
   15.800     1892
   15.950     2002
   16.100     2161
   16.250     2238
   16.400     2434
   16.550     2392
   16.700     2274
   16.850     2055
   17.000     2157
   17.150     2115
   17.300     2182
   17.450     2169
   17.600     2211
   17.750     2443
   17.900     2190
   18.050     2146
   18.200     2372
   18.350     2433
   18.500     2798
   18.650     2587
   18.800     2551
   18.950     2135
   19.100     2478
   19.250     2322
   19.400     2236
   19.550     2182
   19.700     2169
   19.850     2261
   20.000     2204
   20.150     2212
   20.300     2192
   20.450     2244
   20.600     2254
   20.750     2350
   20.900     2490
   21.050     2379
   21.200     2311
   21.350     2361
   21.500     2510
   21.650     2210
   21.800     2446
   21.950     2197
   22.100     2246
   22.250     2112
   22.400     2139
   22.550     2211
   22.700     2171
   22.850     2136
   23.000     2159
   23.150     2117
   23.300     2128
   23.450     2308
   23.600     2115
   23.750     2153
   23.900     2042
   24.050     2213
   24.200     2161
   24.350     2074
   24.500     2215
   24.650     2094
   24.800     2217
   24.950     1997
   25.100     2161
   25.250     2062
   25.400     2077
   25.550     2079
   25.700     1894
   25.850     2009
   26.000     1870
   26.150     2026
   26.300     1896
   26.450     1908
   26.600     1918
   26.750     2038
   26.900     2035
   27.050     1995
   27.200     1870
   27.350     1959
   27.500     2066
   27.650     1917
   27.800     1991
   27.950     1974
   28.100     1922
   28.250     1916
   28.400     1755
   28.550     1898
   28.700     1818
   28.850     1784
   29.000     1831
   29.150     1740
   29.300     1755
   29.450     1746
   29.600     1742
   29.750     1703
   29.900     1730
   30.050     1699
   30.200     1789
   30.350     1735
   30.500     1706
   30.650     1687
   30.800     1827
   30.950     1543
   31.100     1690
   31.250     1654
   31.400     1765
   31.550     1692
   31.700     1686
   31.850     1554
   32.000     1605
   32.150     1715
   32.300     1862
   32.450     1753
   32.600     1760
   32.750     1753
   32.900     1814
   33.050     1764
   33.200     1654
   33.350     1727
   33.500     1726
   33.650     1642
   33.800     1670
   33.950     1679
   34.100     1789
   34.250     1704
   34.400     1611
   34.550     1634
   34.700     1558
   34.850     1580
   35.000     1683
   35.150     1568
   35.300     1629
   35.450     1650
   35.600     1649
   35.750     1654
   35.900     1505
   36.050     1611
   36.200     1656
   36.350     1549
   36.500     1585
   36.650     1567
   36.800     1552
   36.950     1397
   37.100     1472
   37.250     1460
   37.400     1559
   37.550     1517
   37.700     1514
   37.850     1479
   38.000     1490
   38.150     1579
   38.300     1527
   38.450     1530
   38.600     1513
   38.750     1562
   38.900     1633
   39.050     1587
   39.200     1535
   39.350     1497
   39.500     1600
   39.650     1492
   39.800     1543
   39.950     1490
   40.100     1685
   40.250     1530
   40.400     1529
   40.550     1596
   40.700     1563
   40.850     1624
   41.000     1617
   41.150     1603
   41.300     1707
   41.450     1591
   41.600     1625
   41.750     1713
   41.900     1463
   42.050     1562
   42.200     1665
   42.350     1665
   42.500     1576
   42.650     1555
   42.800     1609
   42.950     1467
   43.100     1567
   43.250     1516
   43.400     1529
   43.550     1565
   43.700     1514
   43.850     1576
   43.985     1618