File: data/MIL-88B_101/PXRD/PXRD_MIL-53-DMF_Cu-Kα1_capillary-0.7mm.xyd
    2.000       74
    2.150       84
    2.300       80
    2.450       76
    2.600       77
    2.750       77
    2.900       89
    3.050       90
    3.200       77
    3.350       83
    3.500       74
    3.650       76
    3.800       73
    3.950       76
    4.100       81
    4.250       74
    4.400       78
    4.550       61
    4.700       79
    4.850       77
    5.000       82
    5.150       69
    5.300       81
    5.450       61
    5.600       80
    5.750       81
    5.900       76
    6.050       80
    6.200       92
    6.350       81
    6.500       76
    6.650       76
    6.800       81
    6.950       77
    7.100       75
    7.250       62
    7.400       89
    7.550       62
    7.700       77
    7.850       81
    8.000       88
    8.150       91
    8.300       89
    8.450       85
    8.600       87
    8.750      112
    8.900      286
    9.050      814
    9.200      137
    9.350       88
    9.500      102
    9.650      215
    9.800      384
    9.950       87
   10.100       76
   10.250       80
   10.400       84
   10.550       79
   10.700       84
   10.850       71
   11.000       84
   11.150       72
   11.300       75
   11.450       88
   11.600       84
   11.750       81
   11.900       70
   12.050       74
   12.200       89
   12.350       71
   12.500       77
   12.650       93
   12.800       83
   12.950       75
   13.100       92
   13.250       75
   13.400       74
   13.550       79
   13.700       77
   13.850       84
   14.000       78
   14.150       76
   14.300       80
   14.450       88
   14.600       98
   14.750      103
   14.900      210
   15.050      114
   15.200       97
   15.350       92
   15.500       90
   15.650       90
   15.800       94
   15.950       82
   16.100       96
   16.250       84
   16.400       92
   16.550      133
   16.700      117
   16.850       99
   17.000       95
   17.150       91
   17.300       89
   17.450      112
   17.600      156
   17.750       99
   17.900      120
   18.050      156
   18.200      355
   18.350      236
   18.500      119
   18.650      105
   18.800      101
   18.950       92
   19.100      111
   19.250      108
   19.400      116
   19.550      129
   19.700      127
   19.850      107
   20.000       91
   20.150      114
   20.300      102
   20.450      147
   20.600      148
   20.750      134
   20.900      117
   21.050      101
   21.200      104
   21.350      104
   21.500      122
   21.650      108
   21.800      106
   21.950      112
   22.100      119
   22.250      104
   22.400      106
   22.550       90
   22.700      100
   22.850      126
   23.000      104
   23.150      105
   23.300       84
   23.450      100
   23.600       87
   23.750      108
   23.900      106
   24.050       93
   24.200      103
   24.350       99
   24.500       91
   24.650       96
   24.800       93
   24.950       63
   25.100       91
   25.250      117
   25.400       93
   25.550       97
   25.700       78
   25.850      111
   26.000       97
   26.150       83
   26.300       85
   26.450       89
   26.600       83
   26.750       94
   26.900       97
   27.050       89
   27.200      143
   27.350      122
   27.500      154
   27.650      159
   27.800      109
   27.950       89
   28.100       99
   28.250       90
   28.400       99
   28.550       83
   28.700       89
   28.850       96
   29.000       94
   29.150       94
   29.300       85
   29.450       96
   29.600       99
   29.750       86
   29.900       86
   30.050       84
   30.200       91
   30.350      114
   30.500       71
   30.650       86
   30.800       90
   30.950       91
   31.100       83
   31.250       91
   31.400      128
   31.550       83
   31.700       96
   31.850       89
   32.000      107
   32.150      108
   32.300       87
   32.450       94
   32.600       82
   32.750       89
   32.900      101
   33.050      106
   33.200       82
   33.350       97
   33.500       91
   33.650       81
   33.800       80
   33.950       84
   34.100       86
   34.250       93
   34.400       80
   34.550       87
   34.700       85
   34.850       86
   35.000       90
   35.150       84
   35.300       92
   35.450       85
   35.600       72
   35.750       80
   35.900       81
   36.050       85
   36.200       80
   36.350       83
   36.500       69
   36.650       67
   36.800       81
   36.950       91
   37.100       83
   37.250       75
   37.400       89
   37.550       82
   37.700       70
   37.850       80
   38.000       77
   38.150       90
   38.300       65
   38.450       69
   38.600       70
   38.750       81
   38.900       93
   39.050       92
   39.200       68
   39.350       90
   39.500       95
   39.650       78
   39.800      102
   39.950      104
   40.100      104
   40.250       87
   40.400       81
   40.550       77
   40.700       78
   40.850       74
   41.000       89
   41.150       75
   41.300       77
   41.450       76
   41.600       83
   41.750       83
   41.900       73
   42.050       84
   42.200       92
   42.350      115
   42.500       80
   42.650       86
   42.800       96
   42.950       75
   43.100       93
   43.250       86
   43.400       86
   43.550       98
   43.700       87
   43.850       80
   43.985       86