File: data/MIL-88B_101/PXRD/PXRD_S-11_Cu-Kα1_capillary-0.7mm.xyd
    2.000     1844
    2.150     1859
    2.300     1756
    2.450     1836
    2.600     1904
    2.750     1857
    2.900     1747
    3.050     2100
    3.200     3138
    3.350     1928
    3.500     1365
    3.650     1377
    3.800     1473
    3.950     1355
    4.100     1453
    4.250     1384
    4.400     1282
    4.550     1375
    4.700     1540
    4.850     1426
    5.000     1847
    5.150     1365
    5.300     1360
    5.450     1510
    5.600     1393
    5.750     1767
    5.900     1239
    6.050     1247
    6.200     1311
    6.350     1290
    6.500     1299
    6.650     1246
    6.800     1349
    6.950     1351
    7.100     1313
    7.250     1335
    7.400     1379
    7.550     1357
    7.700     1389
    7.850     1485
    8.000     1494
    8.150     1629
    8.300     2146
    8.450     1942
    8.600     1679
    8.750     2490
    8.900     3566
    9.050     1479
    9.200     1650
    9.350     1468
    9.500     1522
    9.650     1477
    9.800     1537
    9.950     1721
   10.100     1989
   10.250     1484
   10.400     1460
   10.550     1520
   10.700     1565
   10.850     1493
   11.000     1555
   11.150     1642
   11.300     1557
   11.450     1591
   11.600     1587
   11.750     1594
   11.900     1493
   12.050     1563
   12.200     1606
   12.350     1556
   12.500     1565
   12.650     1546
   12.800     1699
   12.950     1781
   13.100     1798
   13.250     1722
   13.400     1739
   13.550     1756
   13.700     1847
   13.850     1888
   14.000     1825
   14.150     1849
   14.300     1864
   14.450     1909
   14.600     1894
   14.750     1902
   14.900     2010
   15.050     2120
   15.200     2149
   15.350     2280
   15.500     2299
   15.650     2200
   15.800     2340
   15.950     2457
   16.100     2590
   16.250     2690
   16.400     2466
   16.550     2644
   16.700     2688
   16.850     2668
   17.000     2822
   17.150     2986
   17.300     2975
   17.450     3197
   17.600     3088
   17.750     3357
   17.900     3054
   18.050     3095
   18.200     3211
   18.350     3222
   18.500     3434
   18.650     3740
   18.800     3696
   18.950     3592
   19.100     3592
   19.250     3455
   19.400     3546
   19.550     3565
   19.700     3553
   19.850     3592
   20.000     3557
   20.150     3579
   20.300     3550
   20.450     3534
   20.600     3394
   20.750     3359
   20.900     3445
   21.050     3516
   21.200     3497
   21.350     3449
   21.500     3466
   21.650     3206
   21.800     3348
   21.950     3273
   22.100     3358
   22.250     3052
   22.400     3085
   22.550     3142
   22.700     2969
   22.850     2778
   23.000     2856
   23.150     2981
   23.300     2900
   23.450     2877
   23.600     2695
   23.750     2842
   23.900     2696
   24.050     2644
   24.200     2635
   24.350     2535
   24.500     2526
   24.650     2431
   24.800     2530
   24.950     2528
   25.100     2568
   25.250     2405
   25.400     2420
   25.550     2248
   25.700     2316
   25.850     2240
   26.000     2242
   26.150     2212
   26.300     2155
   26.450     2138
   26.600     2085
   26.750     2013
   26.900     2045
   27.050     2111
   27.200     2148
   27.350     2007
   27.500     2035
   27.650     1952
   27.800     1964
   27.950     1845
   28.100     2080
   28.250     1837
   28.400     1854
   28.550     1928
   28.700     1844
   28.850     1749
   29.000     1788
   29.150     1817
   29.300     1753
   29.450     1690
   29.600     1668
   29.750     1793
   29.900     1619
   30.050     1613
   30.200     1640
   30.350     1595
   30.500     1535
   30.650     1644
   30.800     1754
   30.950     1597
   31.100     1668
   31.250     1527
   31.400     1494
   31.550     1516
   31.700     1491
   31.850     1525
   32.000     1479
   32.150     1468
   32.300     1473
   32.450     1512
   32.600     1469
   32.750     1368
   32.900     1371
   33.050     1400
   33.200     1385
   33.350     1462
   33.500     1363
   33.650     1278
   33.800     1342
   33.950     1332
   34.100     1377
   34.250     1222
   34.400     1293
   34.550     1330
   34.700     1220
   34.850     1242
   35.000     1254
   35.150     1254
   35.300     1200
   35.450     1212
   35.600     1217
   35.750     1181
   35.900     1090
   36.050     1121
   36.200     1145
   36.350     1069
   36.500     1092
   36.650     1098
   36.800     1163
   36.950     1174
   37.100     1164
   37.250     1102
   37.400     1077
   37.550     1111
   37.700     1165
   37.850     1117
   38.000     1090
   38.150     1144
   38.300     1058
   38.450     1095
   38.600     1025
   38.750      975
   38.900     1107
   39.050     1067
   39.200     1036
   39.350     1076
   39.500     1046
   39.650      950
   39.800     1019
   39.950     1016
   40.100     1135
   40.250     1002
   40.400     1020
   40.550     1105
   40.700     1013
   40.850      960
   41.000     1011
   41.150     1075
   41.300     1021
   41.450     1104
   41.600     1025
   41.750     1013
   41.900     1014
   42.050      946
   42.200      987
   42.350      958
   42.500     1011
   42.650      988
   42.800     1016
   42.950      980
   43.100     1046
   43.250      998
   43.400      969
   43.550      980
   43.700     1003
   43.850     1016
   43.985      994