File: data/MIL-88B_101/PXRD/PXRD_S-1_Cu-Kα1_capillary-0.7mm.xyd
    2.000      638
    2.150      705
    2.300      645
    2.450      704
    2.600      630
    2.750      654
    2.900      711
    3.050      671
    3.200      711
    3.350      743
    3.500      700
    3.650      697
    3.800      672
    3.950      665
    4.100      697
    4.250      669
    4.400      684
    4.550      672
    4.700      657
    4.850      646
    5.000      648
    5.150      665
    5.300      670
    5.450      662
    5.600      684
    5.750      672
    5.900      638
    6.050      626
    6.200      666
    6.350      606
    6.500      669
    6.650      665
    6.800      703
    6.950      695
    7.100      729
    7.250      692
    7.400      636
    7.550      643
    7.700      707
    7.850      660
    8.000      684
    8.150      706
    8.300      674
    8.450      703
    8.600      653
    8.750      645
    8.900      716
    9.050      740
    9.200     1150
    9.350      780
    9.500      796
    9.650      702
    9.800      704
    9.950      698
   10.100      807
   10.250      728
   10.400      729
   10.550      720
   10.700      684
   10.850      715
   11.000      703
   11.150      774
   11.300      817
   11.450      757
   11.600      700
   11.750      810
   11.900      790
   12.050      757
   12.200      777
   12.350      795
   12.500      796
   12.650      785
   12.800      823
   12.950      882
   13.100      902
   13.250      853
   13.400      847
   13.550      875
   13.700      953
   13.850     1007
   14.000      956
   14.150     1012
   14.300      967
   14.450     1013
   14.600      973
   14.750      992
   14.900     1032
   15.050     1095
   15.200     1086
   15.350     1187
   15.500     1197
   15.650     1220
   15.800     1243
   15.950     1232
   16.100     1356
   16.250     1275
   16.400     1321
   16.550     1398
   16.700     1417
   16.850     1419
   17.000     1493
   17.150     1581
   17.300     1552
   17.450     1585
   17.600     1674
   17.750     1684
   17.900     1681
   18.050     1648
   18.200     1770
   18.350     1733
   18.500     1769
   18.650     2131
   18.800     1967
   18.950     1958
   19.100     2064
   19.250     1938
   19.400     1885
   19.550     1865
   19.700     1853
   19.850     1949
   20.000     1839
   20.150     1985
   20.300     1870
   20.450     1849
   20.600     1784
   20.750     1685
   20.900     1778
   21.050     1824
   21.200     1798
   21.350     1785
   21.500     1739
   21.650     1630
   21.800     1740
   21.950     1623
   22.100     1692
   22.250     1587
   22.400     1518
   22.550     1546
   22.700     1518
   22.850     1459
   23.000     1528
   23.150     1490
   23.300     1495
   23.450     1412
   23.600     1361
   23.750     1465
   23.900     1387
   24.050     1304
   24.200     1348
   24.350     1240
   24.500     1304
   24.650     1288
   24.800     1352
   24.950     1326
   25.100     1335
   25.250     1249
   25.400     1236
   25.550     1261
   25.700     1320
   25.850     1279
   26.000     1249
   26.150     1232
   26.300     1233
   26.450     1163
   26.600     1130
   26.750     1120
   26.900     1155
   27.050     1179
   27.200     1174
   27.350     1165
   27.500     1192
   27.650     1101
   27.800     1152
   27.950     1079
   28.100     1131
   28.250     1093
   28.400     1082
   28.550     1086
   28.700     1007
   28.850      989
   29.000     1021
   29.150     1029
   29.300     1005
   29.450     1043
   29.600     1002
   29.750      998
   29.900      984
   30.050      892
   30.200      914
   30.350      936
   30.500      923
   30.650      949
   30.800      970
   30.950      903
   31.100      949
   31.250      859
   31.400      812
   31.550      830
   31.700      848
   31.850      892
   32.000      822
   32.150      847
   32.300      844
   32.450      826
   32.600      808
   32.750      759
   32.900      793
   33.050      764
   33.200      779
   33.350      778
   33.500      741
   33.650      699
   33.800      676
   33.950      734
   34.100      790
   34.250      650
   34.400      678
   34.550      688
   34.700      659
   34.850      625
   35.000      649
   35.150      694
   35.300      614
   35.450      655
   35.600      617
   35.750      636
   35.900      594
   36.050      598
   36.200      606
   36.350      622
   36.500      564
   36.650      614
   36.800      647
   36.950      553
   37.100      617
   37.250      539
   37.400      577
   37.550      569
   37.700      579
   37.850      577
   38.000      564
   38.150      578
   38.300      577
   38.450      566
   38.600      524
   38.750      550
   38.900      542
   39.050      546
   39.200      579
   39.350      544
   39.500      575
   39.650      547
   39.800      543
   39.950      553
   40.100      570
   40.250      522
   40.400      516
   40.550      507
   40.700      524
   40.850      525
   41.000      567
   41.150      490
   41.300      529
   41.450      568
   41.600      539
   41.750      511
   41.900      517
   42.050      473
   42.200      546
   42.350      507
   42.500      482
   42.650      488
   42.800      508
   42.950      484
   43.100      553
   43.250      499
   43.400      472
   43.550      509
   43.700      534
   43.850      480
   43.985      467