File: data/MIL-88B_101/PXRD/PXRD_S-14_Cu-Kα1_capillary-0.7mm.xyd
    2.000      638
    2.150      674
    2.300      685
    2.450      718
    2.600      872
    2.750      893
    2.900      821
    3.050     1096
    3.200     1791
    3.350     1038
    3.500      640
    3.650      613
    3.800      754
    3.950      626
    4.100      711
    4.250      669
    4.400      611
    4.550      646
    4.700      735
    4.850      680
    5.000     1060
    5.150      657
    5.300      658
    5.450      799
    5.600      673
    5.750      976
    5.900      588
    6.050      611
    6.200      608
    6.350      626
    6.500      588
    6.650      605
    6.800      682
    6.950      670
    7.100      695
    7.250      698
    7.400      612
    7.550      631
    7.700      729
    7.850      667
    8.000      720
    8.150      819
    8.300     1076
    8.450      996
    8.600      778
    8.750     1249
    8.900     2187
    9.050      706
    9.200      678
    9.350      708
    9.500      748
    9.650      678
    9.800      735
    9.950      817
   10.100      912
   10.250      703
   10.400      718
   10.550      737
   10.700      774
   10.850      673
   11.000      813
   11.150      801
   11.300      786
   11.450      729
   11.600      789
   11.750      803
   11.900      709
   12.050      692
   12.200      765
   12.350      757
   12.500      746
   12.650      748
   12.800      852
   12.950      835
   13.100      863
   13.250      767
   13.400      899
   13.550      868
   13.700      890
   13.850      987
   14.000      888
   14.150     1006
   14.300      927
   14.450      976
   14.600      950
   14.750      939
   14.900     1030
   15.050     1117
   15.200     1117
   15.350     1161
   15.500     1133
   15.650     1117
   15.800     1225
   15.950     1244
   16.100     1289
   16.250     1419
   16.400     1223
   16.550     1334
   16.700     1363
   16.850     1312
   17.000     1479
   17.150     1517
   17.300     1528
   17.450     1613
   17.600     1692
   17.750     1732
   17.900     1544
   18.050     1546
   18.200     1630
   18.350     1679
   18.500     1731
   18.650     1818
   18.800     1983
   18.950     1874
   19.100     1789
   19.250     1840
   19.400     1756
   19.550     1820
   19.700     1851
   19.850     1856
   20.000     1794
   20.150     1828
   20.300     1757
   20.450     1764
   20.600     1611
   20.750     1634
   20.900     1737
   21.050     1656
   21.200     1740
   21.350     1731
   21.500     1733
   21.650     1568
   21.800     1586
   21.950     1529
   22.100     1673
   22.250     1524
   22.400     1500
   22.550     1563
   22.700     1453
   22.850     1403
   23.000     1411
   23.150     1437
   23.300     1432
   23.450     1517
   23.600     1435
   23.750     1413
   23.900     1371
   24.050     1310
   24.200     1284
   24.350     1344
   24.500     1323
   24.650     1255
   24.800     1325
   24.950     1305
   25.100     1319
   25.250     1267
   25.400     1246
   25.550     1191
   25.700     1213
   25.850     1207
   26.000     1208
   26.150     1224
   26.300     1139
   26.450     1170
   26.600     1086
   26.750     1123
   26.900     1124
   27.050     1130
   27.200     1134
   27.350     1167
   27.500     1135
   27.650     1036
   27.800     1098
   27.950     1106
   28.100     1132
   28.250     1017
   28.400     1077
   28.550     1017
   28.700     1021
   28.850      997
   29.000     1049
   29.150      978
   29.300     1022
   29.450      965
   29.600      976
   29.750     1025
   29.900      891
   30.050      908
   30.200      922
   30.350      912
   30.500      846
   30.650      857
   30.800      967
   30.950      904
   31.100      946
   31.250      915
   31.400      861
   31.550      873
   31.700      848
   31.850      824
   32.000      850
   32.150      872
   32.300      808
   32.450      827
   32.600      806
   32.750      740
   32.900      784
   33.050      828
   33.200      769
   33.350      793
   33.500      767
   33.650      740
   33.800      750
   33.950      725
   34.100      758
   34.250      688
   34.400      711
   34.550      695
   34.700      675
   34.850      648
   35.000      686
   35.150      680
   35.300      661
   35.450      656
   35.600      660
   35.750      613
   35.900      634
   36.050      577
   36.200      609
   36.350      590
   36.500      577
   36.650      567
   36.800      649
   36.950      576
   37.100      663
   37.250      618
   37.400      580
   37.550      561
   37.700      590
   37.850      578
   38.000      558
   38.150      570
   38.300      570
   38.450      553
   38.600      524
   38.750      542
   38.900      562
   39.050      563
   39.200      543
   39.350      570
   39.500      518
   39.650      539
   39.800      521
   39.950      546
   40.100      609
   40.250      550
   40.400      539
   40.550      539
   40.700      547
   40.850      528
   41.000      523
   41.150      587
   41.300      551
   41.450      584
   41.600      530
   41.750      521
   41.900      508
   42.050      500
   42.200      538
   42.350      496
   42.500      515
   42.650      499
   42.800      525
   42.950      526
   43.100      575
   43.250      526
   43.400      476
   43.550      542
   43.700      548
   43.850      523
   43.985      482