File: data/Fe–terephthalate/PXRD/PXRD_S-6_Cu-Kα1_capillary-0.7mm.xyd
    2.000     1632
    2.150     1554
    2.300     1490
    2.450     1523
    2.600     1428
    2.750     1438
    2.900     1519
    3.050     1484
    3.200     1414
    3.350     1390
    3.500     1463
    3.650     1376
    3.800     1368
    3.950     1304
    4.100     1388
    4.250     1333
    4.400     1310
    4.550     1359
    4.700     1289
    4.850     1354
    5.000     1372
    5.150     1340
    5.300     1327
    5.450     1319
    5.600     1296
    5.750     1416
    5.900     1262
    6.050     1330
    6.200     1370
    6.350     1300
    6.500     1320
    6.650     1288
    6.800     1299
    6.950     1216
    7.100     1329
    7.250     1285
    7.400     1376
    7.550     1300
    7.700     1276
    7.850     1286
    8.000     1326
    8.150     1256
    8.300     1274
    8.450     1369
    8.600     1336
    8.750     1513
    8.900     1953
    9.050     3198
    9.200     7290
    9.350    13533
    9.500     3695
    9.650     1424
    9.800     1344
    9.950     1258
   10.100     1333
   10.250     1333
   10.400     1306
   10.550     1271
   10.700     1318
   10.850     1307
   11.000     1292
   11.150     1271
   11.300     1354
   11.450     1309
   11.600     1351
   11.750     1325
   11.900     1269
   12.050     1300
   12.200     1524
   12.350     2096
   12.500     4128
   12.650     1341
   12.800     1310
   12.950     1208
   13.100     1326
   13.250     1204
   13.400     1332
   13.550     1316
   13.700     1215
   13.850     1349
   14.000     1244
   14.150     1263
   14.300     1257
   14.450     1322
   14.600     1318
   14.750     1316
   14.900     1319
   15.050     1410
   15.200     1266
   15.350     1284
   15.500     1353
   15.650     1347
   15.800     1373
   15.950     1499
   16.100     3196
   16.250     1462
   16.400     1726
   16.550     1625
   16.700     1371
   16.850     1644
   17.000     1615
   17.150     1300
   17.300     1405
   17.450     1397
   17.600     1378
   17.750     1383
   17.900     1339
   18.050     1381
   18.200     1421
   18.350     1340
   18.500     1450
   18.650     2555
   18.800     7879
   18.950     1464
   19.100     1902
   19.250     2408
   19.400     1412
   19.550     1358
   19.700     1279
   19.850     1342
   20.000     1275
   20.150     1329
   20.300     1338
   20.450     1399
   20.600     1397
   20.750     1500
   20.900     1810
   21.050     1652
   21.200     2318
   21.350     3050
   21.500     1593
   21.650     1468
   21.800     1894
   21.950     4291
   22.100     1490
   22.250     1440
   22.400     1368
   22.550     1360
   22.700     1407
   22.850     1366
   23.000     1426
   23.150     1378
   23.300     1455
   23.450     1799
   23.600     1701
   23.750     1871
   23.900     1505
   24.050     1403
   24.200     1468
   24.350     1480
   24.500     1378
   24.650     1365
   24.800     1661
   24.950     1302
   25.100     1448
   25.250     1497
   25.400     1530
   25.550     1409
   25.700     1388
   25.850     2109
   26.000     1443
   26.150     2104
   26.300     1492
   26.450     1405
   26.600     1391
   26.750     1406
   26.900     1449
   27.050     1462
   27.200     1453
   27.350     1413
   27.500     1428
   27.650     1291
   27.800     1409
   27.950     1376
   28.100     1679
   28.250     1572
   28.400     2331
   28.550     1422
   28.700     1389
   28.850     1427
   29.000     1483
   29.150     1469
   29.300     1465
   29.450     1454
   29.600     1392
   29.750     1822
   29.900     1324
   30.050     1360
   30.200     1503
   30.350     1356
   30.500     1380
   30.650     1331
   30.800     1446
   30.950     1674
   31.100     1521
   31.250     1346
   31.400     1377
   31.550     1348
   31.700     1308
   31.850     1284
   32.000     1307
   32.150     1351
   32.300     1391
   32.450     1756
   32.600     1534
   32.750     1503
   32.900     1581
   33.050     1381
   33.200     1402
   33.350     1585
   33.500     1480
   33.650     1271
   33.800     1284
   33.950     1250
   34.100     1465
   34.250     1395
   34.400     1675
   34.550     1610
   34.700     1291
   34.850     1264
   35.000     1356
   35.150     1299
   35.300     1444
   35.450     1295
   35.600     1293
   35.750     1317
   35.900     1289
   36.050     1464
   36.200     1306
   36.350     1261
   36.500     1263
   36.650     1193
   36.800     1266
   36.950     1316
   37.100     1333
   37.250     1143
   37.400     1273
   37.550     1330
   37.700     1180
   37.850     1541
   38.000     1260
   38.150     1761
   38.300     1312
   38.450     1277
   38.600     1339
   38.750     1351
   38.900     1322
   39.050     1418
   39.200     1293
   39.350     1283
   39.500     1371
   39.650     1235
   39.800     1301
   39.950     1256
   40.100     1320
   40.250     1245
   40.400     1355
   40.550     1629
   40.700     1343
   40.850     1563
   41.000     1362
   41.150     1318
   41.300     1313
   41.450     1287
   41.600     1391
   41.750     2045
   41.900     1356
   42.050     1295
   42.200     1395
   42.350     1978
   42.500     1474
   42.650     1280
   42.800     1483
   42.950     1233
   43.100     1345
   43.250     1231
   43.400     1308
   43.550     1461
   43.700     1302
   43.850     1249
   43.985     1373