File: data/Fe–terephthalate/PXRD/PXRD_S-7_Cu-Kα1_capillary-0.7mm.xyd
    2.000      631
    2.150      641
    2.300      617
    2.450      652
    2.600      596
    2.750      639
    2.900      648
    3.050      640
    3.200      640
    3.350      636
    3.500      618
    3.650      621
    3.800      631
    3.950      596
    4.100      618
    4.250      628
    4.400      612
    4.550      615
    4.700      603
    4.850      598
    5.000      655
    5.150      615
    5.300      644
    5.450      615
    5.600      591
    5.750      651
    5.900      600
    6.050      590
    6.200      637
    6.350      624
    6.500      632
    6.650      604
    6.800      652
    6.950      629
    7.100      666
    7.250      596
    7.400      643
    7.550      657
    7.700      638
    7.850      695
    8.000      592
    8.150      659
    8.300      665
    8.450      654
    8.600      634
    8.750      649
    8.900      681
    9.050      920
    9.200     3078
    9.350      843
    9.500     1288
    9.650      660
    9.800      662
    9.950      637
   10.100      637
   10.250      663
   10.400      646
   10.550      664
   10.700      667
   10.850      672
   11.000      717
   11.150      657
   11.300      686
   11.450      689
   11.600      669
   11.750      722
   11.900      705
   12.050      666
   12.200      720
   12.350      976
   12.500     1247
   12.650      699
   12.800      761
   12.950      737
   13.100      771
   13.250      731
   13.400      736
   13.550      754
   13.700      881
   13.850     1066
   14.000      768
   14.150      847
   14.300      785
   14.450      840
   14.600      830
   14.750      826
   14.900      862
   15.050      898
   15.200      899
   15.350      902
   15.500      916
   15.650      836
   15.800      957
   15.950     1482
   16.100     1020
   16.250      980
   16.400     1217
   16.550     1123
   16.700     1066
   16.850     1393
   17.000     1109
   17.150     1130
   17.300     1146
   17.450     1156
   17.600     1193
   17.750     1190
   17.900     1184
   18.050     1214
   18.200     1239
   18.350     1237
   18.500     1260
   18.650     3862
   18.800     1415
   18.950     1321
   19.100     1388
   19.250     2042
   19.400     1312
   19.550     1349
   19.700     1301
   19.850     1316
   20.000     1329
   20.150     1305
   20.300     1292
   20.450     1350
   20.600     1231
   20.750     1191
   20.900     1524
   21.050     1268
   21.200     1570
   21.350     1275
   21.500     1308
   21.650     1381
   21.800     1910
   21.950     1168
   22.100     1163
   22.250     1151
   22.400     1123
   22.550     1171
   22.700     1134
   22.850     1048
   23.000     1126
   23.150     1132
   23.300     1195
   23.450     1131
   23.600     1039
   23.750     1144
   23.900      995
   24.050     1055
   24.200     1001
   24.350     1011
   24.500     1065
   24.650     1014
   24.800      999
   24.950      968
   25.100     1085
   25.250      952
   25.400      948
   25.550      991
   25.700     1265
   25.850      988
   26.000     1347
   26.150      951
   26.300      934
   26.450      941
   26.600      876
   26.750      862
   26.900      940
   27.050      928
   27.200      898
   27.350      904
   27.500      948
   27.650      824
   27.800      958
   27.950     1012
   28.100      990
   28.250     1132
   28.400      867
   28.550      841
   28.700      853
   28.850      918
   29.000      868
   29.150      886
   29.300      865
   29.450      886
   29.600      947
   29.750      857
   29.900      767
   30.050      777
   30.200      817
   30.350      802
   30.500      775
   30.650      881
   30.800      800
   30.950      801
   31.100      896
   31.250      779
   31.400      795
   31.550      735
   31.700      723
   31.850      755
   32.000      709
   32.150      728
   32.300      829
   32.450      852
   32.600      847
   32.750      670
   32.900      668
   33.050      703
   33.200      722
   33.350      835
   33.500      716
   33.650      646
   33.800      714
   33.950      622
   34.100      759
   34.250      678
   34.400      793
   34.550      644
   34.700      619
   34.850      621
   35.000      636
   35.150      619
   35.300      650
   35.450      660
   35.600      629
   35.750      632
   35.900      573
   36.050      578
   36.200      596
   36.350      537
   36.500      564
   36.650      618
   36.800      556
   36.950      590
   37.100      575
   37.250      606
   37.400      590
   37.550      653
   37.700      579
   37.850      611
   38.000      638
   38.150      601
   38.300      587
   38.450      568
   38.600      549
   38.750      561
   38.900      570
   39.050      553
   39.200      539
   39.350      594
   39.500      556
   39.650      516
   39.800      564
   39.950      510
   40.100      566
   40.250      503
   40.400      531
   40.550      748
   40.700      557
   40.850      552
   41.000      563
   41.150      541
   41.300      522
   41.450      540
   41.600      668
   41.750      610
   41.900      578
   42.050      564
   42.200      586
   42.350      565
   42.500      552
   42.650      511
   42.800      506
   42.950      498
   43.100      542
   43.250      535
   43.400      558
   43.550      543
   43.700      494
   43.850      528
   43.985      532