File: data/Fe–terephthalate/PXRD/PXRD_S-3_Cu-Kα1_capillary-0.7mm.xyd
    2.000      430
    2.150      502
    2.300      441
    2.450      429
    2.600      428
    2.750      439
    2.900      428
    3.050      435
    3.200      445
    3.350      486
    3.500      469
    3.650      461
    3.800      465
    3.950      404
    4.100      450
    4.250      473
    4.400      419
    4.550      474
    4.700      451
    4.850      423
    5.000      461
    5.150      441
    5.300      524
    5.450      489
    5.600      445
    5.750      429
    5.900      442
    6.050      420
    6.200      439
    6.350      492
    6.500      470
    6.650      451
    6.800      450
    6.950      438
    7.100      488
    7.250      437
    7.400      489
    7.550      456
    7.700      453
    7.850      487
    8.000      461
    8.150      464
    8.300      473
    8.450      490
    8.600      455
    8.750      452
    8.900      505
    9.050      752
    9.200     2961
    9.350      658
    9.500     1140
    9.650      466
    9.800      475
    9.950      463
   10.100      433
   10.250      475
   10.400      468
   10.550      478
   10.700      477
   10.850      443
   11.000      493
   11.150      472
   11.300      502
   11.450      489
   11.600      513
   11.750      449
   11.900      459
   12.050      479
   12.200      497
   12.350      718
   12.500     1120
   12.650      482
   12.800      506
   12.950      490
   13.100      524
   13.250      509
   13.400      469
   13.550      514
   13.700      591
   13.850      836
   14.000      510
   14.150      544
   14.300      537
   14.450      543
   14.600      479
   14.750      535
   14.900      560
   15.050      554
   15.200      533
   15.350      554
   15.500      567
   15.650      540
   15.800      607
   15.950     1055
   16.100      588
   16.250      555
   16.400      823
   16.550      735
   16.700      622
   16.850      905
   17.000      613
   17.150      612
   17.300      661
   17.450      627
   17.600      680
   17.750      634
   17.900      628
   18.050      593
   18.200      701
   18.350      691
   18.500      692
   18.650     3429
   18.800      749
   18.950      715
   19.100      761
   19.250     1322
   19.400      732
   19.550      718
   19.700      660
   19.850      664
   20.000      629
   20.150      696
   20.300      662
   20.450      683
   20.600      650
   20.750      645
   20.900      924
   21.050      693
   21.200     1025
   21.350      671
   21.500      734
   21.650      872
   21.800     1482
   21.950      656
   22.100      654
   22.250      617
   22.400      638
   22.550      642
   22.700      576
   22.850      605
   23.000      586
   23.150      610
   23.300      734
   23.450      622
   23.600      581
   23.750      673
   23.900      594
   24.050      577
   24.200      569
   24.350      609
   24.500      606
   24.650      571
   24.800      558
   24.950      593
   25.100      670
   25.250      578
   25.400      564
   25.550      603
   25.700      806
   25.850      602
   26.000     1064
   26.150      570
   26.300      565
   26.450      591
   26.600      570
   26.750      565
   26.900      607
   27.050      583
   27.200      549
   27.350      638
   27.500      581
   27.650      505
   27.800      569
   27.950      664
   28.100      588
   28.250      858
   28.400      539
   28.550      570
   28.700      560
   28.850      576
   29.000      591
   29.150      552
   29.300      559
   29.450      640
   29.600      680
   29.750      522
   29.900      503
   30.050      506
   30.200      537
   30.350      542
   30.500      498
   30.650      673
   30.800      497
   30.950      584
   31.100      555
   31.250      519
   31.400      467
   31.550      498
   31.700      446
   31.850      507
   32.000      490
   32.150      526
   32.300      602
   32.450      625
   32.600      643
   32.750      502
   32.900      521
   33.050      488
   33.200      481
   33.350      623
   33.500      463
   33.650      492
   33.800      539
   33.950      462
   34.100      561
   34.250      514
   34.400      586
   34.550      475
   34.700      442
   34.850      457
   35.000      480
   35.150      507
   35.300      532
   35.450      457
   35.600      474
   35.750      502
   35.900      415
   36.050      422
   36.200      470
   36.350      439
   36.500      413
   36.650      486
   36.800      489
   36.950      432
   37.100      454
   37.250      458
   37.400      433
   37.550      581
   37.700      388
   37.850      510
   38.000      546
   38.150      471
   38.300      451
   38.450      467
   38.600      419
   38.750      410
   38.900      450
   39.050      472
   39.200      458
   39.350      456
   39.500      436
   39.650      437
   39.800      414
   39.950      436
   40.100      434
   40.250      392
   40.400      432
   40.550      633
   40.700      441
   40.850      448
   41.000      441
   41.150      402
   41.300      446
   41.450      445
   41.600      625
   41.750      559
   41.900      460
   42.050      499
   42.200      512
   42.350      455
   42.500      506
   42.650      440
   42.800      432
   42.950      412
   43.100      459
   43.250      450
   43.400      460
   43.550      463
   43.700      388
   43.850      428
   43.985      446