File: scripts/decision-tree_input.csv
id,Co(tapp)_precursor,TPA_substitution,Acid_pKa,Additive,Solvent2,solvent_1_name,Vessel,Degas,Temp_degC,TPA_eq,H2O_per_TPA,TAPP_conc_mM,Acid_conc_M,Solvent2_fraction,m-DNB,main_product
KE-008,Co(tapp),(OMe)2,12.6,none,o-DCB,nBuOH,microwave vial,False,120.0,3.27122,121.704,12.0,0.7,0.5,False,Co(tapp)nXm
KE-010,Co(tapp),(OMe)2,12.6,none,o-DCB,nBuOH,microwave vial,False,120.0,2.02083,195.468,12.0,0.7,0.5,False,Co(tapp)nXm
KE-015,Co(tapp),(OMe)2,12.6,none,o-DCB,nBuOH,microwave vial,False,120.0,2.97038,119.404,12.0,0.7,0.5,False,Co(tapp)nXm
KE-016,Co(tapp),(OMe)2,12.6,none,o-DCB,nBuOH,microwave vial,False,120.0,1.98602,188.427,12.0,0.7,0.5,False,Co(tapp)nXm
KE-017,Co(tapp),(OMe)2,12.6,none,o-DCB,nBuOH,microwave vial,False,120.0,2.06188,168.599,14.0,0.7,0.5,False,Co(tapp)nXm
KE-019,Co(tapp),(OMe)2,12.6,none,o-DCB,nBuOH,microwave vial,False,120.0,2.99214,109.745,14.0,0.7,0.5,False,Co(tapp)nXm
KE-021,Co(tapp),(OMe)2,12.6,none,o-DCB,nBuOH,microwave vial,False,120.0,3.0,114.048,14.0,0.7,0.5,False,Co(tapp)nXm
KE-022,Co(tapp),(OMe)2,12.6,none,o-DCB,"1,4-dioxane",microwave vial,False,120.0,3.0,114.048,14.0,0.7,0.5,False,Co(tapp)nXm
KE-033,Co(ttpp),(OMe)2,12.6,none,o-DCB,nBuOH,microwave vial,False,120.0,2.97761,107.093,14.0,0.7,0.5,False,Co(tapp)nXm
KE-034,Co(ttpp),(OMe)2,12.6,none,o-DCB,DMAc,Schlenk bomb,True,120.0,3,106.815,14.0,0.7,0.5,False,COF-366-Co
KE-036,Co(ttpp),(OMe)2,12.6,none,o-DCB,DMAc,Schlenk bomb,True,120.0,2.0,320.0,14.0,1.4,0.5,False,Co(tapp)
KE-040,Co(ttpp),(OMe)2,13.0,none,o-DCB,DMAc,Schlenk bomb,True,120.0,2.0,320.0,6.0,0.7,0.5,False,Co(tapp)
KE-042,Co(ttpp),(OMe)2,11.0,none,o-DCB,DMAc,Schlenk bomb,True,120.0,2.0,320.0,6.0,0.7,0.5,False,Co(tapp)
KE-044,Co(ttpp),(OMe)2,11.0,none,o-DCB,EtOH,microwave vial,True,120.0,2.07988,85.1351,20.0,0.6,0.5,False,COF-366-Co
KE-045,Co(ttpp),none,11.0,none,o-DCB,EtOH,microwave vial,True,120.0,2.15865,83.3856,20.0,0.6,0.5,False,COF-366-Co
KE-046,Co(ttpp),(OMe)2,11.0,none,mesitylene,"1,4-dioxane",microwave vial,True,120.0,2.0816,88.5355,20.0,0.6,0.250375,False,COF-366-Co
KE-048,Co(ttpp),(OMe)2,11.0,none,mesitylene,"1,4-dioxane",microwave vial,True,120.0,2.10973,83.0097,20.0,0.6,0.249812,False,COF-366-Co
KE-049,Co(ttpp),none,11.0,none,mesitylene,"1,4-dioxane",microwave vial,True,120.0,2.13993,83.2696,20.0,0.6,0.249812,False,COF-366-Co
KE-050,Co(ttpp),(OMe)2,10.8,none,mesitylene,"1,4-dioxane",microwave vial,True,120.0,2.07213,87.7244,20.0,0.6,0.250375,False,MOCOF-1
KE-051,Co(ttpp),(OMe)2,20.0,none,mesitylene,"1,4-dioxane",microwave vial,True,120.0,2.11365,86.3948,20.0,0.0,0.250375,False,Co(tapp)nXm
KE-052,Co(ttpp),(OMe)2,10.8,none,mesitylene,"1,4-dioxane",microwave vial,False,120.0,2.0,89.9169,20.0,0.6,0.250375,False,Co(tapp)nXm
KE-059,Co(ttpp),none,10.8,none,mesitylene,"1,4-dioxane",microwave vial,True,120.0,2.26034,81.0976,20.0,0.6,0.250375,False,MOCOF-1
KE-061,Co(ttpp),none,10.8,none,mesitylene,"1,4-dioxane",microwave vial,True,120.0,2.26646,80.8784,10.0,0.6,0.249812,False,Co(tapp)nXm
KE-063,Co(ttpp),none,10.8,none,o-DCB,"1,4-dioxane",microwave vial,True,120.0,2.27182,80.6876,20.0,0.6,0.250375,False,Co(tapp)
KE-064,Co(ttpp),none,10.8,none,mesitylene,"1,4-dioxane",Schlenk bomb,True,120.0,1.04361,172.478,20.0,0.6,0.250375,False,Co(tapp)
KE-065,Co(ttpp),none,10.8,none,mesitylene,"1,4-dioxane",Schlenk bomb,True,120.0,2.0218,89.0294,20.0,0.3,0.250375,False,Co(tapp)
KE-069,Co(ttpp),none,10.8,none,o-DCB,"1,4-dioxane",Schlenk bomb,True,120.0,2.09899,22.0523,20.0,1.2,0.250375,False,COF-366-Co
KE-070,Co(ttpp),none,10.8,none,o-DCB,"1,4-dioxane",Schlenk bomb,True,120.0,3.00526,29.9475,20.0,1.2,0.250375,False,COF-366-Co
KE-073,Co(ttpp),none,10.8,none,o-DCB,"1,4-dioxane",microwave vial,True,120.0,2.17943,84.9539,20.0,0.6,0.250375,False,MOCOF-1
KE-075,Co(ttpp),none,10.8,none,o-DCB,"1,4-dioxane",Schlenk bomb,True,120.0,2.31787,19.97,20.0,1.2,0.250375,False,Co(tapp)
KE-076,Co(ttpp),(OMe)2,13.0,none,o-DCB,"1,4-dioxane",Schlenk bomb,True,120.0,2.0985,42.8879,20.0,1.2,0.250375,False,COF-366-Co
KE-081,Co(ttpp),none,10.8,none,mesitylene,"1,4-dioxane",microwave vial,True,120.0,2.28415,81.8182,20.0,0.6,0.1997,False,Co(tapp)nXm
KE-082,Co(ttpp),none,10.8,none,PhNO2,"1,4-dioxane",Schlenk bomb,True,120.0,2.2931,81.8182,38.0,0.6,0.249925,False,Co(tapp)
KE-083,Co(ttpp),none,11.0,none,o-DCB,"1,4-dioxane",Schlenk bomb,True,120.0,2.01974,45.0,20.0,1.2,0.250375,False,COF-366-Co
KE-084,Co(ttpp),none,11.0,none,o-DCB,"1,4-dioxane",Schlenk bomb,False,120.0,2.01974,45.0,20.0,1.2,0.250375,False,COF-366-Co
KE-085,Co(ttpp),none,10.8,none,mesitylene,"1,4-dioxane",microwave vial,True,120.0,2.17793,85.4085,20.0,0.6,0.250375,False,Co(tapp)nXm
KE-089,Co(ttpp),none,10.8,none,o-DCB,EtOC2H4OH,microwave vial,True,120.0,2.10039,88.6995,20.0,0.6,0.250375,False,Co(tapp)nXm
KE-090,Co(ttpp),none,10.8,none,o-DCB,diglyme,microwave vial,True,120.0,2.22802,83.6186,20.0,0.6,0.250375,False,Co(tapp)nXm
KE-091,Co(ttpp),F4,10.8,none,o-DCB,"1,4-dioxane",Schlenk bomb,True,120.0,2.07594,86.7077,20.0,0.6,0.250375,False,Co(tapp)nXm
KE-092,Co(ttpp),none,10.8,none,o-DCB,"1,4-dioxane",Schlenk bomb,True,120.0,2.11751,43.9912,20.0,0.6,0.250375,False,COF-366-Co
KE-097,Co(ttpp),none,10.8,none,PhNO2,"1,4-dioxane",Schlenk bomb,True,120.0,2.10226,42.8112,20.0,0.6,0.250375,False,Co(tapp)nXm
KE-098,Co(ttpp),none,10.8,TrOH,PhNO2,"1,4-dioxane",Schlenk bomb,True,120.0,2.02932,44.3498,20.0,0.6,0.250375,False,COF-366-Co
KE-099,C120H88N8.Co.HI,none,10.8,PBA,PhNO2,"1,4-dioxane",Schlenk bomb,True,120.0,2.19503,39.8336,20.0,0.6,0.250375,False,Co(tapp)nXm
KE-104,Co(ttpp),none,10.8,none,mesitylene,"1,4-dioxane",microwave vial,True,120.0,2.09632,89.4285,20.0,0.6,0.1997,False,Co(tapp)
KE-106,Co(ttpp),none,10.8,none,none,"1,4-dioxane",Schlenk bomb,True,120.0,2.08301,45.0,20.0,0.6,0.0,False,Co(tapp)
KE-107,Co(ttpp),none,10.8,none,none,"1,4-dioxane",Schlenk bomb,True,120.0,2.07444,43.3853,40.0,0.6,0.0,False,Co(tapp)
KE-108,Co(ttpp),none,10.8,none,PhNO2,"1,4-dioxane",Schlenk bomb,True,120.0,2.0,90.0,20.0,0.6,0.250375,False,Co(tapp)
KE-109,Co(ttpp),none,10.8,none,PhNO2,"1,4-dioxane",Schlenk bomb,True,120.0,2.0,90.0,20.0,0.6,0.250375,False,Co(tapp)nXm
KE-111,Co(ttpp),none,5.1,PBA,o-DCB,"1,4-dioxane",Schlenk bomb,True,120.0,2.0,45.0,20.0,0.6,0.250375,False,Co(tapp)nXm
KE-112,Co(ttpp),none,10.8,none,PhNO2,"1,4-dioxane",Schlenk bomb,True,120.0,1.94302,90.0,42.0,0.6,0.249925,False,Co(tapp)nXm
KE-115,Co(ttpp),none,9.1,none,o-DCB,"1,4-dioxane",Schlenk bomb,True,120.0,2.0,45.0,20.0,0.6,0.250375,False,COF-366-Co
KE-121,Co(ttpp),none,10.8,none,mesitylene,"1,4-dioxane",microwave vial,True,120.0,2.0,90.0,20.0,0.6,0.1997,False,Co(tapp)nXm
KE-127,Co(ttpp),none,10.8,none,mesitylene,"1,4-dioxane",Schlenk bomb,True,120.0,2.2,40.9091,20.0,0.6,0.250375,False,COF-366-Co
KE-128,Co(ttpp),none,15.0,none,mesitylene,"1,4-dioxane",Schlenk bomb,True,120.0,2.0,45.0,20.0,0.6,0.250375,False,Co(tapp)
KE-135,Co(ttpp),none,10.8,none,o-DCB,"1,4-dioxane",Schlenk bomb,True,150.0,2.00142,42.4468,22.0,0.6,0.250375,False,Co(tapp)
KE-139,Co(ttpp),none,10.8,none,o-DCB,"1,4-dioxane",Schlenk bomb,True,100.0,2.0,45.0,20.0,0.6,0.250375,False,Co(tapp)nXm
KE-140,Co(ttpp),none,10.8,none,o-DCB,"1,4-dioxane",Schlenk bomb,True,120.0,2.0,90.0,20.0,0.6,0.250375,False,Co(tapp)
KE-141,Co(ttpp),none,10.8,C4H9N,o-DCB,"1,4-dioxane",Schlenk bomb,True,120.0,2.0,45.0,20.0,0.7,0.250375,False,Co(tapp)nXm
KE-144,Co(ttpp),none,10.8,none,o-DCB,"1,4-dioxane",Schlenk bomb,True,120.0,2.0,45.0,20.0,0.6,0.250375,False,Co(tapp)nXm
KE-145,Co(ttpp),none,10.8,none,o-DCB,"1,4-dioxane",Schlenk bomb,False,120.0,2.0,45.0,20.0,0.6,0.250375,False,Co(tapp)nXm
KE-146,Co(ttpp),none,10.8,C6H6N2O2,o-DCB,"1,4-dioxane",Schlenk bomb,True,120.0,2.0,0.0,20.0,0.6,0.250375,False,Co(tapp)nXm
KE-147,Co(ttpp),none,10.8,none,o-DCB,"1,4-dioxane",Schlenk bomb,True,80.0,2.2,81.8182,20.0,0.6,0.250375,False,Co(tapp)
KE-149,Co(ttpp),none,10.8,none,mesitylene,"1,4-dioxane",microwave vial,True,120.0,2.26914,79.9866,20.0,0.6,0.250375,False,Co(tapp)nXm
KE-150,Co(ttpp),none,10.8,none,C2H2Cl4,"1,4-dioxane",Schlenk bomb,True,120.0,2.02899,45.0,20.0,0.6,0.250375,False,Co(tapp)nXm
KE-151,Co(ttpp),none,10.8,none,o-DCB,CH3CN,Schlenk bomb,True,120.0,2.00145,43.2755,20.0,0.6,0.250375,False,Co(tapp)nXm
KE-154,Co(tapp),none,11.0,none,PhNO2,"1,4-dioxane",Schlenk bomb,True,120.0,2.04598,22.5,20.0,0.6,0.249812,False,Co(tapp)
KE-157,Co(ttpp),none,10.8,none,mesitylene,"1,4-dioxane",microwave vial,True,120.0,2.0,120.0,20.0,0.6,0.250375,False,Co(tapp)nXm
KE-158,Co(ttpp),none,10.8,none,PhNO2,"1,4-dioxane",microwave vial,True,120.0,2.0,120.113,22.0,0.6,0.250375,False,Co(tapp)nXm
KE-161,Co(ttpp),none,10.8,none,PhNO2,"1,4-dioxane",Schlenk bomb,True,120.0,1.5,45.0,20.0,0.6,0.250375,False,Co(tapp)nXm
KE-162,Co(ttpp),none,10.8,none,PhNO2,"1,4-dioxane",Schlenk bomb,True,120.0,1.0,45.0,20.0,0.7,0.250375,False,Co(tapp)nXm
KE-163,Co(ttpp),none,10.8,C6H6N2O2,PhNO2,"1,4-dioxane",Schlenk bomb,True,120.0,2.0,0.0,20.0,0.6,0.250375,False,COF-366-Co
KE-165,Co(ttpp),none,20.0,none,PhNO2,"1,4-dioxane",Schlenk bomb,True,120.0,2.0,45.0,20.0,0.0,0.250375,False,Co(tapp)nXm
KE-167,Co(ttpp),none,10.8,PBA,PhNO2,"1,4-dioxane",Schlenk bomb,True,120.0,2.0,0.0,20.0,0.6,0.250375,False,Co(tapp)
KE-172,Co(tapp),none,11.0,none,PhNO2,"1,4-dioxane",Schlenk bomb,True,120.0,3.00663,15,20.0,0.6,0.25,False,COF-366-Co
KE-174,Co(ttpp),none,10.8,PBA,o-DCB,"1,4-dioxane",Schlenk bomb,True,120.0,2.30881,19.5652,20.0,1.2,0.250382,False,COF-366-Co
KE-175,Co(tdpp),none,10.8,C6H6N2O2,PhNO2,"1,4-dioxane",Schlenk bomb,True,120.0,1.98359,0.0,20.0,0.6,0.250375,False,COF-366-Co
KE-177,Co(ttpp),none,5.1,none,o-DCB,"1,4-dioxane",Schlenk bomb,True,120.0,2.17678,41.4839,20.0,0.6,0.250737,False,Co(tapp)nXm
KE-178,Co(tdpp),none,5.1,none,o-DCB,"1,4-dioxane",Schlenk bomb,True,120.0,2.18792,41.2901,20.0,0.5,0.250375,False,MOCOF-1
KE-179,Co(ttpp),none,11.0,none,o-DCB,"1,4-dioxane",Schlenk bomb,True,120.0,2.00077,22.4975,20.0,0.6,0.250374,False,Co(tapp)nXm
KE-180,Co(tapp),none,11.0,none,o-DCB,"1,4-dioxane",Schlenk bomb,True,120.0,2.0,22.5035,20.0,0.6,0.250375,False,Co(tapp)
KE-181,Co(tdpp),none,5.1,none,o-DCB,"1,4-dioxane",Schlenk bomb,True,120.0,1.5,59.9985,20.0,0.6,0.250375,False,MOCOF-1
KE-184,Co(ttpp),none,11.0,none,mesitylene,"1,4-dioxane",Schlenk bomb,True,120.0,2.0,45.0038,20.0,0.6,0.250375,False,COF-366-Co
KE-186,Co(tdpp),none,5.1,none,o-DCB,"1,4-dioxane",Schlenk bomb,True,120.0,0.999265,90.0228,20.0,0.6,0.250375,False,MOCOF-1
KE-187,Co(tdpp),none,10.8,none,PhNO2,"1,4-dioxane",Schlenk bomb,True,120.0,1.5,60.0,20.0,0.6,0.250375,False,COF-366-Co
KE-188,Co(tdpp),none,10.8,none,PhNO2,"1,4-dioxane",Schlenk bomb,True,120.0,1.5,60.0,10.0,0.6,0.249812,False,Co(tapp)
KE-190,Co(tdpp),none,10.8,PBA,PhNO2,"1,4-dioxane",Schlenk bomb,True,120.0,2.0,22.5,20.0,0.6,0.250375,False,COF-366-Co
KE-192,Co(tdpp),none,10.8,none,PhNO2,"1,4-dioxane",microwave vial,True,120.0,2.0,180.0,10.0,0.6,0.249812,False,Co(tapp)nXm
KE-193,Co(tdpp),none,5.1,none,PhNO2,"1,4-dioxane",Schlenk bomb,True,120.0,2.0,45.0,20.0,0.6,0.250375,False,MOCOF-1
KE-197,Co(tdpp),none,11.0,C7H8FNO.ClH,PhNO2,"1,4-dioxane",Schlenk bomb,True,120.0,2.668,22.5,14.0,0.6,0.250375,False,COF-366-Co
KE-199,Co(tapp),none,11.0,none,PhNO2,"1,4-dioxane",Schlenk bomb,True,120.0,2.0,22.4994,20.0,0.6,0.250094,False,COF-366-Co
KE-200,Co(ttpp),none,11.0,none,PhNO2,"1,4-dioxane",Schlenk bomb,True,120.0,2.00025,22.4992,20.0,0.6,0.25,False,COF-366-Co
KE-203,Co(tdpp),none,11.0,C12H14OSi,PhNO2,"1,4-dioxane",Schlenk bomb,True,120.0,2.99929,14.9991,20.0,0.6,0.250375,False,COF-366-Co
KE-207,Co(tdpp),none,11.0,none,PhNO2,"1,4-dioxane",Schlenk bomb,True,120.0,2.98653,15.0,20.0,0.6,0.250375,False,COF-366-Co
KE-210,Co(tdpp),none,10.8,none,o-DCB,"1,4-dioxane",Schlenk bomb,True,120.0,1.49551,59.9099,20.0,1.2,0.250375,False,Co(tapp)nXm
KE-212,Co(tdpp),none,10.8,none,o-DCB,"1,4-dioxane",Schlenk bomb,True,120.0,1.0,45.0,20.0,0.6,0.250375,False,Co(tapp)
KE-213,Co(tdpp),none,10.8,none,o-DCB,"1,4-dioxane",Schlenk bomb,True,120.0,0.995509,45.0,20.0,0.3,0.250375,False,Co(tapp)
KE-214,Co(tdpp),none,13.2,none,o-DCB,"1,4-dioxane",Schlenk bomb,True,120.0,0.995509,45.0,20.0,0.6,0.250375,False,Co(tapp)
KE-216,Co(tdpp),none,3.45,none,o-DCB,"1,4-dioxane",Schlenk bomb,True,120.0,1.99102,45.0,20.0,0.6,0.250375,False,Co(tapp)nXm
KE-217,Co(tdpp),none,5.55,none,o-DCB,"1,4-dioxane",Schlenk bomb,True,120.0,1.99102,45.0,20.0,0.5,0.250375,False,COF-366-Co
KE-218,Co(tdpp),none,7.0,none,o-DCB,"1,4-dioxane",Schlenk bomb,True,120.0,1.99102,45.0,20.0,0.6,0.250375,False,MOCOF-1
KE-219,Co(ttpp),none,11.0,none,PhNO2,"1,4-dioxane",Schlenk bomb,True,120.0,1.9993,22.5012,20.0,0.6,0.250374,False,Co(tapp)nXm
KE-220,Co(tdpp),none,7.0,C6H15N,o-DCB,"1,4-dioxane",Schlenk bomb,True,120.0,1.99102,45.0,10.0,0.6,0.249812,False,COF-366-Co
KE-221,Co(tdpp),none,7.0,none,o-DCB,"1,4-dioxane",Schlenk bomb,True,120.0,1.99102,45.0,20.0,0.6,0.250375,False,COF-366-Co
KE-222,Co(tdpp),none,10.8,none,o-DCB,"1,4-dioxane",Schlenk bomb,True,120.0,0.995509,45.0,18.0,0.6,0.250375,True,MOCOF-1
KE-224,Co(tdpp),F4,10.8,none,PhNO2,"1,4-dioxane",Schlenk bomb,True,120.0,0.995509,240.0,18.0,0.6,0.250375,True,Co(tapp)nXm
KE-225,Co(tdpp),F4,10.8,PBA,PhNO2,"1,4-dioxane",Schlenk bomb,True,120.0,0.995509,180.0,18.0,0.6,0.250375,True,Co(tapp)
KE-226,Co(tdpp),none,10.8,none,PhNO2,"1,4-dioxane",Schlenk bomb,True,120.0,1.49326,60.0,20.0,1.2,0.250375,False,MOCOF-1
KE-227,Co(tdpp),none,7.0,none,PhNO2,"1,4-dioxane",Schlenk bomb,True,120.0,1.99102,45.0,20.0,0.6,0.250375,False,MOCOF-1
KE-228,Co(tdpp),none,8.0,none,PhNO2,"1,4-dioxane",Schlenk bomb,True,120.0,1.99102,45.0,18.0,1.1,0.250375,True,MOCOF-1
KE-229,Co(tdpp),none,10.8,none,PhNO2,"1,4-dioxane",Schlenk bomb,True,120.0,1.99102,45.0,18.0,1.2,0.250375,True,Co(tapp)
KE-230,Co(tdpp),none,10.8,none,PhNO2,"1,4-dioxane",Schlenk bomb,True,120.0,2.0,45.0,18.0,1.1,0.250375,True,Co(tapp)nXm
KE-231,Co(tdpp),(OMe)2,10.8,none,PhNO2,"1,4-dioxane",Schlenk bomb,True,120.0,1.99102,45.0,18.0,1.1,0.250375,True,MOCOF-1
KE-232,Co(tdpp),none,10.8,none,PhNO2,"1,4-dioxane",Schlenk bomb,True,120.0,1.93638,89.8798,20.0,0.6,0.250375,False,Co(tapp)
KE-233,Co(tdpp),(OMe)2,10.8,none,PhNO2,"1,4-dioxane",Schlenk bomb,True,120.0,1.88847,89.7404,18.0,0.6,0.250375,True,MOCOF-1
KE-234,Co(tdpp),C8H6O4,10.8,none,PhNO2,"1,4-dioxane",Schlenk bomb,True,120.0,2.04117,89.9461,18.0,1.1,0.250375,True,Co(tapp)nXm
KE-254,Co(tdpp),none,10.8,none,PhNO2,"1,4-dioxane",Schlenk bomb,True,120.0,2.52782,35.6038,20.0,1.2,0.250809,True,Co(tapp)
KE-258,Co(tdpp),none,10.8,none,PhNO2,"1,4-dioxane",Schlenk bomb,True,150.0,2.0,67.5,20.0,1.2,0.250809,True,Co(tapp)
KE-259,Co(tdpp),(OMe)2,10.8,none,PhNO2,"1,4-dioxane",Schlenk bomb,True,150.0,1.00794,85.745,20.0,1.3,0.250809,True,Co(tapp)nXm
KE-260,Co(tapp),none,11.0,none,PhNO2,"1,4-dioxane",Schlenk bomb,True,120.0,1.84338,22.5,22.0,0.6,0.250375,False,Co(tapp)nXm
KE-261,Co(tapp),none,11.0,none,PhNO2,"1,4-dioxane",Schlenk bomb,True,120.0,1.98212,22.5,20.0,0.6,0.250375,False,Co(tapp)nXm
KE-266,Co(tdpp),none,8.0,none,PhNO2,"1,4-dioxane",Schlenk bomb,True,120.0,2.0797,43.2755,20.0,0.6,0.250809,True,Co(tapp)nXm
KE-267,Co(tdpp),none,7.0,none,PhNO2,"1,4-dioxane",Schlenk bomb,True,120.0,1.95038,46.1449,20.0,0.6,0.250375,False,Co(tapp)nXm
KE-268,Co(tdpp),none,10.8,none,none,"1,4-dioxane",Schlenk bomb,True,120.0,3.04361,29.5702,20.0,1.2,0.0,True,Co(tapp)
KE-272,Co(tdpp),none,10.8,none,none,"1,4-dioxane",Schlenk bomb,True,120.0,1.02425,42.934,20.0,0.6,0.0,True,MOCOF-1
KE-274,Co(tdpp),F2,8.0,none,PhNO2,"1,4-dioxane",Schlenk bomb,True,120.0,1.00301,89.7301,20.0,1.2,0.250809,True,Co(tapp)
KE-282,Co(III)(tdpp),none,10.8,none,none,"1,4-dioxane",Schlenk bomb,True,150.0,2.03073,20.5812,22.0,0.6,0.0,True,Co(tapp)nXm
KE-286,Co(tdpp),none,10.8,none,o-DCB,"1,4-dioxane",Schlenk bomb,True,120.0,2.00733,22.481,20.0,0.6,0.250375,False,COF-366-Co
KE-287,Co(tdpp),none,10.8,none,o-DCB,"1,4-dioxane",Schlenk bomb,True,120.0,1.00444,89.5593,20.0,0.6,0.250375,False,Co(tapp)
KE-288,Co(tdpp),C8H4Br2O2,8.0,none,PhNO2,"1,4-dioxane",Schlenk bomb,True,120.0,2.0082,57.2867,20.0,1.2,0.250809,True,MOCOF-1
KE-291,Co(tdpp),none,10.8,none,PhNO2,"1,4-dioxane",Schlenk bomb,True,120.0,1.99801,89.9351,22.0,0.7,0.250375,False,Co(tapp)
KE-295,Co(tdpp),none,10.8,none,PhNO2,"1,4-dioxane",Schlenk bomb,True,120.0,1.5,120.0,20.0,0.6,0.250375,False,Co(tapp)
KE-296,Co(tdpp),none,10.8,none,PhNO2,"1,4-dioxane",Schlenk bomb,True,120.0,2.0,90.0,10.0,0.6,0.249812,False,Co(tapp)
KE-297,Co(tdpp),none,10.8,none,PhNO2,"1,4-dioxane",Schlenk bomb,True,150.0,1.5,120.0,20.0,0.6,0.250375,False,Co(tapp)
KE-309,Co(tdpp),none,7.0,none,PhNO2,"1,4-dioxane",Schlenk bomb,True,120.0,2.0,45.0,20.0,1.2,0.250809,True,MOCOF-1
KE-312,Co(tdpp),none,8.0,none,PhNO2,"1,4-dioxane",Schlenk bomb,True,120.0,1.88872,47.6513,20.0,1.2,0.250809,True,MOCOF-1
KE-313,Co(tdpp),none,11.0,none,PhNO2,"1,4-dioxane",Schlenk bomb,True,120.0,1.32256,34.025,4.0,0.3,0.374953,False,Co(tapp)
KE-326,Co(tdpp),none,8.0,none,PhNO2,"1,4-dioxane",Schlenk bomb,True,120.0,2.0,45.0,20.0,1.2,0.250742,True,MOCOF-1
KE-339,Co(tdpp),none,11.0,none,PhNO2,"1,4-dioxane",Schlenk bomb,True,120.0,2.01166,23.4037,20.0,0.6,0.249881,False,COF-366-Co
KE-340,Co(tdpp),none,8.0,none,PhNO2,"1,4-dioxane",Schlenk bomb,True,120.0,2.01166,45.1041,20.0,1.3,0.250769,True,MOCOF-1