File: data/PXRD/PXRD_KE-283_Cu-Ka1_film-3mm_3s-deg.xyd
    1.500   36.8088
    1.635   31.8238
    1.770   26.7509
    1.905   22.7664
    2.040   18.9749
    2.175   16.9914
    2.310   15.3239
    2.445   13.6037
    2.580   11.7606
    2.715   10.8478
    2.850   10.4090
    2.985   10.4441
    3.120    9.3909
    3.255    9.0398
    3.390    8.6010
    3.525    8.3553
    3.660    8.1271
    3.795    8.1446
    3.930    8.3377
    4.065    8.7765
    4.200    8.3904
    4.335    8.6010
    4.470    8.3026
    4.605    8.0569
    4.740    7.7585
    4.875    8.5659
    5.010    8.9696
    5.145    8.9170
    5.280    9.8473
    5.415    9.7244
    5.550   10.5319
    5.685    9.8824
    5.820    9.3031
    5.955    8.6537
    6.090    8.7414
    6.225    7.8111
    6.360    7.7234
    6.495    7.6005
    6.630    7.4776
    6.765    7.4425
    6.900    6.9510
    7.035    7.0388
    7.170    6.7930
    7.305    6.2665
    7.440    6.4069
    7.575    6.4244
    7.710    6.2665
    7.845    6.4069
    7.980    5.9505
    8.115    6.1436
    8.250    6.1085
    8.385    5.5643
    8.520    5.5292
    8.655    5.9681
    8.790    5.4941
    8.925    5.3537
    9.060    5.8276
    9.195    5.4766
    9.330    5.5994
    9.465    6.0207
    9.600    4.9149
    9.735    5.2484
    9.870    4.9500
   10.005    5.0904
   10.140    5.5994
   10.275    5.2835
   10.410    5.3186
   10.545    5.3537
   10.680    5.3888
   10.815    5.2659
   10.950    5.5819
   11.085    5.4766
   11.220    5.7223
   11.355    5.3712
   11.490    5.4766
   11.625    6.0909
   11.760    5.3712
   11.895    4.8973
   12.030    5.5994
   12.165    4.7569
   12.300    5.0728
   12.435    4.8798
   12.570    5.0026
   12.705    5.0553
   12.840    5.1080
   12.975    5.5994
   13.110    5.0553
   13.245    5.0377
   13.380    4.7042
   13.515    5.0728
   13.650    5.2659
   13.785    5.1080
   13.920    5.2835
   14.055    5.2308
   14.190    5.2308
   14.325    5.8276
   14.460    5.4239
   14.595    5.7048
   14.730    5.4415
   14.865    5.2484
   15.000    5.1957
   15.135    4.9851
   15.270    5.4941
   15.405    5.3888
   15.540    5.3888
   15.675    5.0026
   15.810    5.1255
   15.945    5.4941
   16.080    5.4239
   16.215    5.1957
   16.350    5.5468
   16.485    5.0904
   16.620    5.6521
   16.755    5.3010
   16.890    5.2484
   17.025    5.1606
   17.160    5.0728
   17.295    4.9851
   17.430    4.7744
   17.565    5.2659
   17.700    5.2484
   17.835    5.2659
   17.970    5.8101
   18.105    5.1255
   18.240    5.0377
   18.375    5.4064
   18.510    5.0728
   18.645    5.4239
   18.780    4.8095
   18.915    5.7223
   19.050    4.8095
   19.185    5.2835
   19.320    5.1080
   19.455    5.1255
   19.590    4.7920
   19.725    5.1255
   19.860    5.2308
   19.995    4.4936
   20.130    5.2133
   20.265    4.8095
   20.400    5.3361
   20.535    4.8798
   20.670    5.3010
   20.805    4.8271
   20.940    4.8622
   21.075    4.8622
   21.210    4.4936
   21.345    5.0202
   21.480    4.9149
   21.615    4.9500
   21.750    4.4234
   21.885    4.6867
   22.020    4.5814
   22.155    4.5463
   22.290    4.5814
   22.425    5.1957
   22.560    4.6867
   22.695    4.3883
   22.830    4.1952
   22.965    4.0899
   23.100    4.6340
   23.235    4.2303
   23.370    4.5287
   23.505    4.0723
   23.640    4.1952
   23.775    3.9670
   23.910    4.1425
   24.045    3.9846
   24.180    3.8968
   24.315    3.7037
   24.450    3.7564
   24.585    3.7564
   24.720    3.8441
   24.855    3.7388
   24.990    3.4404
   25.125    3.6159
   25.260    3.4580
   25.395    3.7739
   25.530    3.5633
   25.665    3.5984
   25.800    3.7915
   25.935    3.5106
   26.070    3.4580
   26.205    3.5106
   26.340    3.3000
   26.475    3.2473
   26.610    3.5984
   26.745    3.2122
   26.880    3.4580
   27.015    3.1420
   27.150    3.4580
   27.285    2.8436
   27.420    3.0367
   27.555    3.4053
   27.690    3.4229
   27.825    2.9489
   27.960    3.8266
   28.095    2.8612
   28.230    3.0718
   28.365    3.0191
   28.500    3.1420
   28.635    2.7032
   28.770    2.9489
   28.905    3.4755
   29.040    3.0542
   29.175    2.7558
   29.310    2.7207
   29.445    2.7734
   29.580    2.5101
   29.715    2.8787
   29.850    2.3521
   29.985    2.5628
   30.120    2.6856
   30.255    2.4750
   30.390    2.3346
   30.525    2.3697
   30.660    2.5276
   30.795    2.3346
   30.930    2.3697
   31.065    2.1590
   31.200    2.2292
   31.335    2.4048
   31.470    2.5101
   31.605    2.2117
   31.740    2.8612
   31.875    2.1766
   32.010    2.7207
   32.145    2.2643
   32.280    1.9659
   32.415    2.1766
   32.550    2.0362
   32.685    2.2117
   32.820    1.9133
   32.955    1.7904
   33.090    2.0888
   33.225    1.7904
   33.360    1.9659
   33.495    2.0888
   33.630    2.0011
   33.765    2.5452
   33.900    1.8080
   34.035    2.1239
   34.170    1.9484
   34.305    1.7904
   34.440    1.8606
   34.575    1.8255
   34.710    1.8080
   34.845    1.5447
   34.980    1.8606
   35.115    1.8606
   35.250    1.7027
   35.385    1.6851
   35.520    1.6149
   35.655    1.6675
   35.790    1.8431
   35.925    1.6324
   36.060    1.8080
   36.195    2.0011
   36.330    2.0713
   36.465    1.5622
   36.600    1.5622
   36.735    1.8957
   36.870    1.5447
   37.005    1.4394
   37.140    1.7729
   37.275    1.8080
   37.410    1.7553
   37.545    1.5096
   37.680    1.6500
   37.815    1.7378
   37.950    1.5622
   38.085    1.5798
   38.220    1.4920
   38.355    1.7202
   38.490    1.7378
   38.625    1.8431
   38.760    1.8255
   38.895    1.8431
   39.030    1.7202
   39.165    1.3691
   39.300    1.5447
   39.435    1.8431
   39.570    1.5622
   39.705    1.5096
   39.840    1.6324
   39.975    1.5447
   39.990    1.5271