File: data/PXRD/PXRD_KE-178_Cu-Ka1_capillary-1mm_5s-deg.xyd
    1.500   28.1517
    1.635   24.5603
    1.770   22.6330
    1.905   21.6114
    2.040   19.6735
    2.175   19.6419
    2.310   19.8104
    2.445   20.6530
    2.580   21.2428
    2.715   23.5703
    2.850   26.2033
    2.985   31.6377
    3.120   37.9989
    3.255   47.1722
    3.390   63.7599
    3.525   87.3618
    3.660  136.1664
    3.795  251.0479
    3.930  342.3065
    4.065   11.2480
    4.200   10.0158
    4.335    9.2154
    4.470    9.3944
    4.605    9.9421
    4.740   10.6372
    4.875   11.4903
    5.010   12.9542
    5.145   16.7562
    5.280   23.3702
    5.415   39.8736
    5.550   60.7794
    5.685    8.1622
    5.820    8.2780
    5.955    8.0253
    6.090    8.0253
    6.225    8.2675
    6.360    8.3096
    6.495    7.9305
    6.630    9.1311
    6.765   12.3855
    6.900    7.6040
    7.035    7.9410
    7.170    8.7098
    7.305    8.3202
    7.440    9.7420
    7.575   11.5219
    7.710   17.5987
    7.845   28.8362
    7.980    7.8462
    8.115    7.2775
    8.250    7.2143
    8.385    8.1727
    8.520    7.8252
    8.655    9.0363
    8.790    9.3418
    8.925    7.2354
    9.060    8.0569
    9.195    8.3096
    9.330   10.1843
    9.465   16.9774
    9.600   34.5024
    9.735    7.5724
    9.870    7.5092
   10.005    7.6883
   10.140    8.8573
   10.275   12.2907
   10.410   10.7846
   10.545    7.3091
   10.680    7.2459
   10.815    7.9305
   10.950   10.7109
   11.085   19.7578
   11.220    6.9405
   11.355    6.9300
   11.490    7.6145
   11.625   10.2686
   11.760   19.2522
   11.895    6.7088
   12.030    6.7720
   12.165    7.1301
   12.300    7.1090
   12.435    8.2886
   12.570    6.7720
   12.705    6.9510
   12.840    8.2886
   12.975   14.2496
   13.110    6.7930
   13.245    6.6983
   13.380    6.9826
   13.515    9.6472
   13.650    7.4987
   13.785    6.4034
   13.920    6.7615
   14.055    9.6788
   14.190    9.3628
   14.325    6.4350
   14.460    6.3086
   14.595    6.3507
   14.730    6.5929
   14.865    6.4560
   15.000    6.8562
   15.135    8.2991
   15.270    6.9405
   15.405    6.3718
   15.540    6.3402
   15.675    6.0769
   15.810    6.2559
   15.945    6.5613
   16.080    7.8357
   16.215    8.8257
   16.350    6.4455
   16.485    6.7825
   16.620    9.6682
   16.755    6.6456
   16.890    6.8457
   17.025    8.5203
   17.160    9.9947
   17.295    6.2559
   17.430    6.5403
   17.565    7.6461
   17.700    6.8457
   17.835    6.8246
   17.970    7.7936
   18.105    6.9194
   18.240    6.4455
   18.375    7.4882
   18.510    6.8878
   18.645    6.8246
   18.780    7.4039
   18.915    7.0142
   19.050    6.6351
   19.185    6.6351
   19.320    6.7088
   19.455    6.7615
   19.590    8.6045
   19.725    7.4671
   19.860    6.4666
   19.995    6.6351
   20.130    6.9089
   20.265    6.9510
   20.400   11.1532
   20.535    7.1722
   20.670    6.6351
   20.805    6.8457
   20.940    6.3823
   21.075    6.7299
   21.210    6.5824
   21.345    6.7088
   21.480    6.8246
   21.615    6.4139
   21.750    6.8562
   21.885    8.7098
   22.020    6.9089
   22.155    6.7615
   22.290    8.0779
   22.425    6.9089
   22.560   10.1738
   22.695    9.1838
   22.830    8.0253
   22.965   15.2396
   23.100    6.8773
   23.235    7.7093
   23.370    7.6251
   23.505    6.6140
   23.640    7.2459
   23.775    6.9616
   23.910    7.9516
   24.045    7.9831
   24.180    6.4139
   24.315    6.8352
   24.450    6.4139
   24.585    7.0248
   24.720    6.7930
   24.855    6.7615
   24.990    6.7930
   25.125    6.8457
   25.260    7.4987
   25.395    6.4350
   25.530    7.0563
   25.665    6.1927
   25.800    8.2464
   25.935    8.8257
   26.070    6.0558
   26.205    6.7720
   26.340    6.2243
   26.475    8.1938
   26.610    6.5824
   26.745    6.3402
   26.880    6.4876
   27.015    7.3828
   27.150    7.6356
   27.285    6.1822
   27.420    6.5719
   27.555    6.4666
   27.690    7.9094
   27.825    6.3718
   27.960    7.0985
   28.095    6.4244
   28.230    7.7725
   28.365    6.8878
   28.500    7.8357
   28.635    6.1822
   28.770    6.1927
   28.905    6.1717
   29.040    6.9510
   29.175    6.0242
   29.310    7.2249
   29.445    6.7720
   29.580    6.1927
   29.715    6.0348
   29.850    6.7509
   29.985    6.4666
   30.120    6.2349
   30.255    5.7293
   30.390    6.0558
   30.525    5.8241
   30.660    6.6140
   30.795    6.2243
   30.930    5.9821
   31.065    5.9610
   31.200    5.7820
   31.335    6.3296
   31.470    6.6667
   31.605    5.5924
   31.740    6.2138
   31.875    5.9610
   32.010    6.0769
   32.145    5.5398
   32.280    5.5292
   32.415    5.8452
   32.550    5.7399
   32.685    5.8768
   32.820    5.3397
   32.955    6.4771
   33.090    5.7715
   33.225    5.6345
   33.360    5.7083
   33.495    5.6345
   33.630    5.7609
   33.765    5.7293
   33.900    6.2033
   34.035    6.3507
   34.170    6.1611
   34.305    5.7820
   34.440    6.0242
   34.575    5.4028
   34.710    5.2765
   34.845    5.4660
   34.980    5.9505
   35.115    5.3397
   35.250    5.2238
   35.385    5.4766
   35.520    5.1080
   35.655    5.1711
   35.790    5.8136
   35.925    5.6661
   36.060    6.1295
   36.195    5.1922
   36.330    5.2659
   36.465    5.3081
   36.600    5.4555
   36.735    6.0979
   36.870    5.4976
   37.005    5.3081
   37.140    6.3718
   37.275    5.9189
   37.410    4.9605
   37.545    5.4344
   37.680    5.8662
   37.815    5.5503
   37.950    5.6240
   38.085    5.3186
   38.220    5.1395
   38.355    5.2975
   38.490    5.5503
   38.625    4.9921
   38.760    5.0553
   38.895    5.1185
   39.030    5.5292
   39.165    5.5924
   39.300    5.5819
   39.435    5.0764
   39.570    5.6345
   39.705    5.5608
   39.840    5.2027
   39.975    5.5187
   39.990    5.2975