File: data/PXRD/PXRD_KE-305-2C_Cu-Ka1_capillary-1mm_3s-deg.xyd
    1.500   25.2062
    1.635   22.8190
    1.770   19.1329
    1.905   18.3430
    2.040   16.6754
    2.175   15.3765
    2.310   14.5515
    2.445   14.1302
    2.580   15.3765
    2.715   15.9558
    2.850   17.5180
    2.985   18.4132
    3.120   21.8361
    3.255   25.9259
    3.390   33.8248
    3.525   45.0588
    3.660   65.9996
    3.795  139.2663
    3.930   30.6126
    4.065    9.7946
    4.200    8.4957
    4.335    7.7409
    4.470    7.8813
    4.605    7.9867
    4.740    7.5478
    4.875    9.0925
    5.010    9.4611
    5.145   11.1462
    5.280   14.4111
    5.415   22.0291
    5.550   10.1457
    5.685    7.6005
    5.820    7.0915
    5.955    6.8808
    6.090    7.3196
    6.225    6.5824
    6.360    7.6005
    6.495    8.8292
    6.630   10.3212
    6.765   11.7781
    6.900    7.0739
    7.035    6.6877
    7.170    6.6000
    7.305    6.8808
    7.440    6.9861
    7.575    8.3026
    7.710   10.7425
    7.845    8.4781
    7.980    6.8808
    8.115    6.9686
    8.250    7.2143
    8.385    6.4420
    8.520    6.4946
    8.655    6.9335
    8.790    6.5298
    8.925    6.3718
    9.060    6.5122
    9.195    7.8111
    9.330    9.4436
    9.465   16.1313
    9.600   12.6733
    9.735    6.9335
    9.870    6.3893
   10.005    7.2319
   10.140    8.3728
   10.275   14.3058
   10.410    7.3899
   10.545    6.3542
   10.680    6.6175
   10.815    6.5649
   10.950    9.4436
   11.085    8.7239
   11.220    6.3367
   11.355    6.4244
   11.490    7.1441
   11.625    9.6367
   11.760    9.7595
   11.895    5.6170
   12.030    6.1962
   12.165    6.0207
   12.300    6.4420
   12.435    5.9154
   12.570    5.5292
   12.705    6.2840
   12.840    8.2149
   12.975   11.5675
   13.110    6.2313
   13.245    5.8452
   13.380    6.3367
   13.515    8.5659
   13.650    5.8978
   13.785    6.7228
   13.920    6.7053
   14.055    8.9345
   14.190    6.0032
   14.325    5.8803
   14.460    5.7223
   14.595    5.6521
   14.730    6.0558
   14.865    5.7223
   15.000    5.9329
   15.135    7.0388
   15.270    5.9329
   15.405    5.9154
   15.540    5.7925
   15.675    6.2665
   15.810    5.5117
   15.945    6.4946
   16.080    7.4952
   16.215    6.2313
   16.350    6.4595
   16.485    6.5649
   16.620    8.0393
   16.755    6.0383
   16.890    5.8978
   17.025    9.2154
   17.160    6.6000
   17.295    6.6175
   17.430    6.2665
   17.565    6.7755
   17.700    6.1611
   17.835    6.4420
   17.970    6.7228
   18.105    6.0558
   18.240    6.1962
   18.375    7.8111
   18.510    5.7048
   18.645    6.2665
   18.780    6.2138
   18.915    6.1436
   19.050    6.3191
   19.185    7.3372
   19.320    6.6000
   19.455    6.1962
   19.590    7.9340
   19.725    6.4244
   19.860    6.4420
   19.995    6.5122
   20.130    6.0383
   20.265    7.3547
   20.400    9.3031
   20.535    6.6000
   20.670    6.9686
   20.805    6.6877
   20.940    6.6526
   21.075    6.5298
   21.210    6.5649
   21.345    6.4420
   21.480    6.8106
   21.615    6.3191
   21.750    6.8633
   21.885    7.9340
   22.020    6.8808
   22.155    7.3547
   22.290    7.4601
   22.425    6.7404
   22.560   11.1287
   22.695    8.0569
   22.830    8.8468
   22.965    9.8297
   23.100    7.0915
   23.235    7.1617
   23.370    7.0037
   23.505    6.4420
   23.640    6.6351
   23.775    6.8282
   23.910    8.1797
   24.045    7.0388
   24.180    6.9159
   24.315    6.7755
   24.450    6.8106
   24.585    6.9159
   24.720    7.0388
   24.855    6.4771
   24.990    6.4595
   25.125    6.8808
   25.260    7.0037
   25.395    6.6877
   25.530    7.1968
   25.665    6.7228
   25.800    9.1978
   25.935    7.7585
   26.070    6.5824
   26.205    6.7579
   26.340    6.8633
   26.475    6.8633
   26.610    6.7228
   26.745    6.2313
   26.880    6.3191
   27.015    7.0739
   27.150    6.6175
   27.285    6.1436
   27.420    6.0383
   27.555    6.4244
   27.690    7.1266
   27.825    6.2840
   27.960    6.8106
   28.095    6.9335
   28.230    7.1968
   28.365    6.2313
   28.500    7.4250
   28.635    6.3016
   28.770    5.8803
   28.905    6.1085
   29.040    6.3191
   29.175    6.0032
   29.310    6.5298
   29.445    5.7925
   29.580    5.8978
   29.715    6.2489
   29.850    5.8101
   29.985    5.5994
   30.120    6.6000
   30.255    5.8627
   30.390    5.8978
   30.525    5.8978
   30.660    6.1085
   30.795    6.1085
   30.930    5.7399
   31.065    5.1782
   31.200    5.2659
   31.335    5.5643
   31.470    5.7750
   31.605    5.4766
   31.740    6.0032
   31.875    5.8276
   32.010    5.4064
   32.145    5.6521
   32.280    5.2133
   32.415    5.3010
   32.550    5.4590
   32.685    5.5292
   32.820    4.9149
   32.955    5.7223
   33.090    5.3010
   33.225    5.4590
   33.360    4.9851
   33.495    4.8798
   33.630    5.0026
   33.765    4.9851
   33.900    5.5468
   34.035    5.1431
   34.170    4.5463
   34.305    5.3010
   34.440    5.5292
   34.575    4.8798
   34.710    4.9500
   34.845    5.2659
   34.980    4.8271
   35.115    4.8798
   35.250    4.6340
   35.385    4.9149
   35.520    5.2835
   35.655    4.8095
   35.790    4.8798
   35.925    4.8622
   36.060    4.7920
   36.195    4.5814
   36.330    4.8447
   36.465    4.7744
   36.600    4.6867
   36.735    4.4409
   36.870    5.0026
   37.005    4.6691
   37.140    5.1957
   37.275    4.4409
   37.410    4.6165
   37.545    4.4936
   37.680    4.9149
   37.815    4.7744
   37.950    4.5111
   38.085    4.3181
   38.220    4.2654
   38.355    4.4234
   38.490    4.5111
   38.625    4.5287
   38.760    4.4234
   38.895    4.2830
   39.030    4.6516
   39.165    4.3005
   39.300    5.0026
   39.435    4.4936
   39.570    4.4936
   39.705    4.4409
   39.840    5.0904
   39.975    4.2830
   39.990    3.9670