File: data/PXRD/PXRD_KE-288_Cu-Ka1_capillary-1mm_3s-deg.xyd
    1.500   27.1546
    1.635   24.9254
    1.770   23.2403
    1.905   20.7653
    2.040   20.3616
    2.175   19.1680
    2.310   18.8520
    2.445   18.7994
    2.580   18.7467
    2.715   20.1510
    2.850   23.1350
    2.985   25.7504
    3.120   29.7876
    3.255   36.9317
    3.390   47.5689
    3.525   66.4209
    3.660  101.8080
    3.795  222.1520
    3.930   29.7525
    4.065   10.8478
    4.200   10.0579
    4.335    9.5840
    4.470    9.4260
    4.605   10.5319
    4.740   11.0058
    4.875   11.8308
    5.010   13.9372
    5.145   17.6935
    5.280   24.6972
    5.415   51.1673
    5.550   12.8664
    5.685    7.6707
    5.820    8.0218
    5.955    7.7760
    6.090    8.2149
    6.225    7.8989
    6.360    8.3553
    6.495    8.6361
    6.630   11.0936
    6.765    9.9702
    6.900    8.1973
    7.035    7.3899
    7.170    8.4606
    7.305    8.6010
    7.440   10.0579
    7.575   13.9723
    7.710   26.3472
    7.845   10.0755
    7.980    7.7585
    8.115    7.4601
    8.250    7.6005
    8.385    7.3899
    8.520    8.5308
    8.655   11.9186
    8.790    7.7409
    8.925    7.6532
    9.060    7.6883
    9.195   10.8127
    9.330   15.3941
    9.465   35.4748
    9.600   14.3935
    9.735    6.9861
    9.870    6.9159
   10.005    7.8111
   10.140    8.7590
   10.275   13.1999
   10.410    6.9159
   10.545    7.1617
   10.680    7.0037
   10.815    9.1803
   10.950   14.9903
   11.085   10.2861
   11.220    6.2138
   11.355    7.1617
   11.490    8.3202
   11.625   12.3925
   11.760    8.8292
   11.895    7.4425
   12.030    6.7755
   12.165    6.4595
   12.300    8.1973
   12.435    6.5298
   12.570    6.9159
   12.705    6.8808
   12.840    8.9170
   12.975    9.7069
   13.110    6.6351
   13.245    7.1441
   13.380    7.3196
   13.515    7.9516
   13.650    6.7053
   13.785    6.9510
   13.920    6.6702
   14.055   11.5148
   14.190    6.4595
   14.325    6.6175
   14.460    7.3021
   14.595    6.4244
   14.730    7.5654
   14.865    6.7228
   15.000    6.6000
   15.135    8.3377
   15.270    6.6000
   15.405    6.6702
   15.540    6.4771
   15.675    7.1968
   15.810    7.0915
   15.945    7.0037
   16.080    9.6367
   16.215    7.3372
   16.350    6.5649
   16.485    6.8282
   16.620    6.6702
   16.755    7.0037
   16.890    7.6883
   17.025   15.1308
   17.160    7.1266
   17.295    7.3547
   17.430    8.2324
   17.565    7.4250
   17.700    7.2845
   17.835    7.6180
   17.970    7.8813
   18.105    7.5478
   18.240    6.7755
   18.375    7.3723
   18.510    7.3196
   18.645    7.4425
   18.780    7.6707
   18.915    7.1968
   19.050    6.6702
   19.185    6.2138
   19.320    6.1787
   19.455    6.9159
   19.590    9.2154
   19.725    7.4601
   19.860    6.4946
   19.995    7.8813
   20.130    7.0037
   20.265    8.2500
   20.400    9.4962
   20.535    6.8984
   20.670    6.6702
   20.805    7.2494
   20.940    7.1266
   21.075    6.7930
   21.210    7.0915
   21.345    6.8808
   21.480    6.9861
   21.615    6.6877
   21.750    7.7936
   21.885    8.4430
   22.020    7.2319
   22.155    7.6883
   22.290    7.3372
   22.425    8.6712
   22.560   13.5159
   22.695    7.0212
   22.830   10.6723
   22.965    9.4436
   23.100    6.9159
   23.235    8.9345
   23.370    7.2319
   23.505    7.4601
   23.640    7.9516
   23.775    7.3372
   23.910    9.0925
   24.045    6.7228
   24.180    7.0739
   24.315    7.3021
   24.450    6.4946
   24.585    7.3547
   24.720    7.2143
   24.855    6.9335
   24.990    6.8633
   25.125    7.5654
   25.260    6.8282
   25.395    6.5298
   25.530    7.1090
   25.665    7.1968
   25.800   11.1813
   25.935    6.9686
   26.070    6.8457
   26.205    6.7930
   26.340    7.6180
   26.475    7.3899
   26.610    6.8457
   26.745    6.3893
   26.880    6.6702
   27.015    9.1452
   27.150    6.7930
   27.285    6.2489
   27.420    6.3893
   27.555    7.7234
   27.690    6.4420
   27.825    6.5824
   27.960    6.7930
   28.095    7.4074
   28.230    6.8984
   28.365    7.3723
   28.500    7.8287
   28.635    6.4946
   28.770    6.3191
   28.905    6.7930
   29.040    6.8633
   29.175    7.2494
   29.310    7.3899
   29.445    6.8984
   29.580    6.2840
   29.715    7.0739
   29.850    7.3372
   29.985    6.2138
   30.120    6.5473
   30.255    5.8803
   30.390    6.3893
   30.525    7.0915
   30.660    6.3542
   30.795    5.8978
   30.930    5.7399
   31.065    6.2313
   31.200    5.5819
   31.335    6.8808
   31.470    6.2313
   31.605    6.7228
   31.740    6.4595
   31.875    6.7053
   32.010    5.4415
   32.145    6.3542
   32.280    5.7925
   32.415    6.3367
   32.550    5.4941
   32.685    5.4766
   32.820    6.0909
   32.955    5.7399
   33.090    5.7925
   33.225    5.4590
   33.360    5.8101
   33.495    5.5819
   33.630    5.7399
   33.765    6.2665
   33.900    6.2665
   34.035    5.9856
   34.170    6.1436
   34.305    5.7223
   34.440    5.1782
   34.575    5.7048
   34.710    6.1085
   34.845    5.2484
   34.980    5.4239
   35.115    4.8447
   35.250    5.3010
   35.385    5.2308
   35.520    5.3186
   35.655    5.1782
   35.790    5.3361
   35.925    5.2133
   36.060    5.1080
   36.195    5.2308
   36.330    4.8798
   36.465    5.0377
   36.600    5.2133
   36.735    5.6697
   36.870    4.9500
   37.005    5.7925
   37.140    5.1080
   37.275    4.7920
   37.410    5.3186
   37.545    5.5117
   37.680    5.2133
   37.815    4.8798
   37.950    5.1782
   38.085    4.9675
   38.220    4.6691
   38.355    5.3712
   38.490    4.9851
   38.625    5.0553
   38.760    4.9500
   38.895    5.5819
   39.030    4.8447
   39.165    5.5819
   39.300    5.3361
   39.435    4.4936
   39.570    4.8095
   39.705    4.8798
   39.840    4.6691
   39.975    5.1431
   39.990    4.8973