File: data/PXRD/PXRD_KE-266_Cu-Ka1_film-3mm_3s-deg.xyd
    1.500   11.9361
    1.635   11.1111
    1.770   11.0409
    1.905    9.8122
    2.040    9.8473
    2.175    9.6015
    2.310    8.9521
    2.445    8.7941
    2.580    8.4430
    2.715    8.4430
    2.850    8.1271
    2.985    7.7936
    3.120    8.1797
    3.255    8.4255
    3.390    8.3026
    3.525    8.6361
    3.660    8.9872
    3.795    9.8824
    3.930    8.7590
    4.065    7.8287
    4.200    8.3377
    4.335    7.9340
    4.470    7.9164
    4.605    8.2675
    4.740    8.1271
    4.875    8.8117
    5.010    8.7590
    5.145    9.3734
    5.280    9.6542
    5.415   10.8654
    5.550   10.9882
    5.685   10.8478
    5.820    9.8824
    5.955    9.1978
    6.090    8.2500
    6.225    8.1797
    6.360    7.8989
    6.495    7.7409
    6.630    7.4250
    6.765    7.6883
    6.900    6.7053
    7.035    6.9510
    7.170    6.5473
    7.305    6.3367
    7.440    6.3016
    7.575    6.2313
    7.710    6.4420
    7.845    6.1962
    7.980    5.7574
    8.115    5.7574
    8.250    5.4239
    8.385    4.8798
    8.520    5.3888
    8.655    5.7399
    8.790    5.6170
    8.925    5.5819
    9.060    5.2133
    9.195    5.3888
    9.330    4.7569
    9.465    5.8101
    9.600    5.5292
    9.735    4.6867
    9.870    5.7223
   10.005    5.0904
   10.140    5.4590
   10.275    5.3186
   10.410    5.3361
   10.545    5.0553
   10.680    5.4590
   10.815    5.5819
   10.950    5.5994
   11.085    5.9329
   11.220    5.3537
   11.355    5.3888
   11.490    5.2308
   11.625    5.0026
   11.760    5.3537
   11.895    4.9500
   12.030    4.7042
   12.165    5.1255
   12.300    5.1782
   12.435    5.4941
   12.570    4.7744
   12.705    5.0904
   12.840    4.8622
   12.975    5.2835
   13.110    5.1255
   13.245    4.7920
   13.380    4.8622
   13.515    4.8973
   13.650    5.2133
   13.785    4.8798
   13.920    4.9851
   14.055    5.6170
   14.190    5.3361
   14.325    5.8276
   14.460    5.1606
   14.595    5.1782
   14.730    5.3010
   14.865    4.9675
   15.000    5.3712
   15.135    4.8622
   15.270    4.8973
   15.405    5.4064
   15.540    5.1431
   15.675    5.4415
   15.810    5.3361
   15.945    4.8798
   16.080    4.8622
   16.215    4.9500
   16.350    4.7218
   16.485    5.2484
   16.620    5.1080
   16.755    4.7393
   16.890    5.0377
   17.025    4.8271
   17.160    4.9324
   17.295    4.9851
   17.430    4.9500
   17.565    4.9500
   17.700    4.6340
   17.835    4.9149
   17.970    4.9851
   18.105    4.6867
   18.240    4.6691
   18.375    5.0553
   18.510    4.9851
   18.645    4.6691
   18.780    5.2484
   18.915    4.5287
   19.050    4.3883
   19.185    4.6340
   19.320    4.9324
   19.455    4.8622
   19.590    4.8798
   19.725    4.8622
   19.860    4.5989
   19.995    4.7569
   20.130    4.6691
   20.265    4.3181
   20.400    4.7042
   20.535    4.1776
   20.670    4.6340
   20.805    4.7393
   20.940    4.4760
   21.075    3.9670
   21.210    4.4936
   21.345    4.1776
   21.480    4.3883
   21.615    4.4936
   21.750    4.4936
   21.885    4.8798
   22.020    3.6862
   22.155    3.9319
   22.290    4.5463
   22.425    4.0021
   22.560    4.5287
   22.695    4.1250
   22.830    3.8441
   22.965    4.6867
   23.100    4.2830
   23.235    4.2303
   23.370    4.0899
   23.505    3.7213
   23.640    3.7388
   23.775    3.8968
   23.910    3.9143
   24.045    4.0372
   24.180    3.6686
   24.315    3.3702
   24.450    3.7037
   24.585    3.5633
   24.720    3.5808
   24.855    3.3526
   24.990    3.5106
   25.125    3.8792
   25.260    3.4053
   25.395    3.8968
   25.530    3.6862
   25.665    3.7388
   25.800    3.8617
   25.935    3.7213
   26.070    3.3702
   26.205    3.9846
   26.340    3.3526
   26.475    3.2649
   26.610    3.5282
   26.745    2.8612
   26.880    3.4053
   27.015    3.4580
   27.150    3.5984
   27.285    3.5457
   27.420    3.4931
   27.555    3.0718
   27.690    3.2298
   27.825    2.9840
   27.960    2.9840
   28.095    2.8963
   28.230    3.1771
   28.365    3.1245
   28.500    3.0893
   28.635    3.0367
   28.770    3.2473
   28.905    3.2824
   29.040    3.1596
   29.175    3.0893
   29.310    3.0893
   29.445    2.8963
   29.580    2.7032
   29.715    2.8436
   29.850    3.0542
   29.985    2.4750
   30.120    2.7909
   30.255    2.7207
   30.390    2.5452
   30.525    2.6856
   30.660    2.7734
   30.795    2.7558
   30.930    2.6330
   31.065    2.5628
   31.200    2.2995
   31.335    2.7558
   31.470    2.7032
   31.605    2.4223
   31.740    2.3521
   31.875    2.4223
   32.010    2.5452
   32.145    2.5452
   32.280    2.2819
   32.415    2.2292
   32.550    2.5276
   32.685    2.5101
   32.820    2.1415
   32.955    2.2117
   33.090    2.3170
   33.225    2.4925
   33.360    2.3697
   33.495    1.9835
   33.630    1.9308
   33.765    2.3346
   33.900    2.4925
   34.035    2.3872
   34.170    2.2643
   34.305    2.1415
   34.440    2.1415
   34.575    2.1239
   34.710    2.2643
   34.845    2.1415
   34.980    2.4223
   35.115    2.0362
   35.250    2.1590
   35.385    1.8957
   35.520    2.1415
   35.655    2.1766
   35.790    1.9659
   35.925    1.9133
   36.060    2.0011
   36.195    2.2995
   36.330    2.3170
   36.465    2.4574
   36.600    2.5628
   36.735    2.2643
   36.870    2.0537
   37.005    2.1239
   37.140    2.1941
   37.275    1.9835
   37.410    2.0362
   37.545    2.2468
   37.680    2.0888
   37.815    2.0713
   37.950    2.1766
   38.085    2.0362
   38.220    2.0362
   38.355    1.8957
   38.490    2.0537
   38.625    2.0713
   38.760    2.0888
   38.895    2.0362
   39.030    2.1766
   39.165    2.1415
   39.300    1.7027
   39.435    2.0011
   39.570    2.0186
   39.705    1.8255
   39.840    1.9308
   39.975    1.9308
   39.990    1.8080