File: data/PXRD/PXRD_KE-298_Cu-Ka1_film-3mm_3s-deg.xyd
    1.500   11.2866
    1.635   11.2515
    1.770   10.2686
    1.905    9.2329
    2.040    9.1452
    2.175    8.6712
    2.310    8.7414
    2.445    8.3728
    2.580    7.9691
    2.715    7.9516
    2.850    8.1446
    2.985    7.7585
    3.120    7.8287
    3.255    7.5654
    3.390    7.4776
    3.525    7.8287
    3.660    7.1968
    3.795    7.4952
    3.930    6.9510
    4.065    6.9861
    4.200    7.1968
    4.335    7.4250
    4.470    7.2319
    4.605    7.9691
    4.740    7.9340
    4.875    7.7585
    5.010    8.0569
    5.145    8.6537
    5.280    9.0574
    5.415   10.6021
    5.550   10.4441
    5.685    9.0925
    5.820    8.9872
    5.955    8.3553
    6.090    7.4601
    6.225    7.1266
    6.360    6.7228
    6.495    7.0388
    6.630    7.1441
    6.765    6.7579
    6.900    6.7404
    7.035    6.3718
    7.170    6.0032
    7.305    5.7048
    7.440    6.3367
    7.575    5.7750
    7.710    5.3010
    7.845    5.7574
    7.980    5.1957
    8.115    5.3712
    8.250    5.2835
    8.385    5.3712
    8.520    5.0904
    8.655    4.8095
    8.790    5.2133
    8.925    4.8622
    9.060    5.2835
    9.195    4.9324
    9.330    5.3010
    9.465    5.0202
    9.600    5.2835
    9.735    5.0026
    9.870    4.7393
   10.005    5.4239
   10.140    4.8973
   10.275    5.3537
   10.410    5.6521
   10.545    4.8798
   10.680    5.1080
   10.815    5.4590
   10.950    5.4064
   11.085    5.1957
   11.220    5.5819
   11.355    4.8973
   11.490    5.3888
   11.625    5.1957
   11.760    4.8973
   11.895    5.0026
   12.030    5.2659
   12.165    5.2308
   12.300    5.1255
   12.435    4.8622
   12.570    4.5287
   12.705    4.6691
   12.840    4.6691
   12.975    4.7218
   13.110    4.5989
   13.245    4.8447
   13.380    5.0026
   13.515    4.6867
   13.650    4.9324
   13.785    4.5638
   13.920    4.6691
   14.055    4.5638
   14.190    4.8095
   14.325    5.2308
   14.460    5.0904
   14.595    4.9149
   14.730    5.0553
   14.865    5.2835
   15.000    4.9851
   15.135    4.6340
   15.270    4.8271
   15.405    4.6867
   15.540    4.5287
   15.675    4.4760
   15.810    4.5111
   15.945    4.4936
   16.080    4.9500
   16.215    4.9324
   16.350    4.4760
   16.485    4.7920
   16.620    5.0026
   16.755    4.4585
   16.890    4.4234
   17.025    4.1776
   17.160    4.7569
   17.295    4.2127
   17.430    4.2830
   17.565    4.9149
   17.700    4.5287
   17.835    4.3181
   17.970    4.5111
   18.105    4.8447
   18.240    4.1776
   18.375    4.3005
   18.510    4.0899
   18.645    4.0021
   18.780    4.3883
   18.915    4.7744
   19.050    4.9149
   19.185    4.5814
   19.320    4.1250
   19.455    4.8095
   19.590    4.8271
   19.725    4.2127
   19.860    4.4936
   19.995    3.9319
   20.130    4.1425
   20.265    4.4234
   20.400    4.2478
   20.535    4.0548
   20.670    4.3883
   20.805    4.0372
   20.940    4.1250
   21.075    4.4585
   21.210    4.1250
   21.345    3.9494
   21.480    4.1250
   21.615    3.9670
   21.750    4.1425
   21.885    4.3532
   22.020    3.7739
   22.155    3.9846
   22.290    3.7037
   22.425    3.9494
   22.560    4.1776
   22.695    3.1947
   22.830    4.0021
   22.965    3.8441
   23.100    4.3356
   23.235    3.9494
   23.370    3.7915
   23.505    3.7037
   23.640    3.8266
   23.775    3.8266
   23.910    3.6686
   24.045    3.8968
   24.180    3.5106
   24.315    3.7037
   24.450    3.5984
   24.585    3.6335
   24.720    3.5633
   24.855    3.5282
   24.990    3.6159
   25.125    3.5457
   25.260    3.7037
   25.395    3.3702
   25.530    3.4580
   25.665    3.5457
   25.800    3.4053
   25.935    3.5808
   26.070    3.3351
   26.205    3.7037
   26.340    3.4931
   26.475    3.0542
   26.610    3.6159
   26.745    3.1947
   26.880    3.2824
   27.015    3.4755
   27.150    3.1069
   27.285    3.2824
   27.420    2.8612
   27.555    2.7909
   27.690    3.1245
   27.825    3.1420
   27.960    3.6159
   28.095    3.2122
   28.230    2.6154
   28.365    2.8260
   28.500    2.8963
   28.635    3.0367
   28.770    2.8963
   28.905    3.0016
   29.040    3.2298
   29.175    3.0191
   29.310    2.8260
   29.445    2.6330
   29.580    2.1941
   29.715    2.7207
   29.850    2.6681
   29.985    2.6330
   30.120    2.6681
   30.255    2.5452
   30.390    2.4574
   30.525    2.3521
   30.660    2.3346
   30.795    2.5101
   30.930    2.5979
   31.065    2.4574
   31.200    2.4750
   31.335    2.4223
   31.470    2.4399
   31.605    2.5452
   31.740    2.5803
   31.875    2.6505
   32.010    2.4750
   32.145    3.2473
   32.280    2.3697
   32.415    2.3697
   32.550    2.1064
   32.685    2.0713
   32.820    2.0186
   32.955    2.4223
   33.090    2.1766
   33.225    2.1590
   33.360    2.2468
   33.495    2.2819
   33.630    2.0362
   33.765    2.3521
   33.900    2.3521
   34.035    2.2819
   34.170    2.1941
   34.305    2.0713
   34.440    2.0186
   34.575    2.2292
   34.710    2.1415
   34.845    2.0888
   34.980    2.1590
   35.115    1.7378
   35.250    2.0888
   35.385    2.2117
   35.520    1.9659
   35.655    1.8431
   35.790    1.8606
   35.925    2.0537
   36.060    2.1239
   36.195    2.0011
   36.330    1.8255
   36.465    2.3697
   36.600    2.1239
   36.735    2.0362
   36.870    2.0537
   37.005    1.9308
   37.140    1.8782
   37.275    2.0011
   37.410    2.2468
   37.545    1.7378
   37.680    2.3170
   37.815    2.0537
   37.950    1.8255
   38.085    1.8080
   38.220    1.7378
   38.355    2.1415
   38.490    2.1941
   38.625    2.5979
   38.760    1.9484
   38.895    1.7202
   39.030    1.8782
   39.165    1.8957
   39.300    1.9308
   39.435    2.1064
   39.570    1.9308
   39.705    1.8957
   39.840    1.8606
   39.975    2.2117
   39.990    2.1590