File: data/PXRD/PXRD_KE-090_Cu-Ka1_capillary-1mm_5s-deg.xyd
    1.500   11.7430
    1.635   10.8373
    1.770   10.3633
    1.905   10.1001
    2.040    9.3418
    2.175    9.8894
    2.310    9.9947
    2.445    8.9837
    2.580    9.5735
    2.715    9.6682
    2.850   10.4265
    2.985   11.4481
    3.120   12.6593
    3.255   15.2817
    3.390   20.3686
    3.525   18.2622
    3.660   13.2807
    3.795   15.1237
    3.930   15.1027
    4.065   11.5324
    4.200    9.6051
    4.335    8.5835
    4.470    7.6356
    4.605    7.3196
    4.740    6.9194
    4.875    6.9932
    5.010    6.9194
    5.145    6.8773
    5.280    7.0142
    5.415    7.3618
    5.550    6.9510
    5.685    6.6351
    5.820    6.2243
    5.955    6.5508
    6.090    6.6351
    6.225    6.1822
    6.360    6.8036
    6.495    6.5087
    6.630    6.7615
    6.765    7.1617
    6.900    7.9621
    7.035    7.3934
    7.170    6.6877
    7.305    6.7193
    7.440    6.7193
    7.575    7.0879
    7.710    7.3196
    7.845    7.6567
    7.980    7.0985
    8.115    7.3512
    8.250    7.3302
    8.385    7.1933
    8.520    7.4250
    8.655    6.8352
    8.790    6.8036
    8.925    7.2354
    9.060    7.1195
    9.195    7.2354
    9.330    7.0142
    9.465    7.0879
    9.600    7.2986
    9.735    7.0563
    9.870    7.2143
   10.005    7.3512
   10.140    6.8457
   10.275    7.0985
   10.410    6.7825
   10.545    6.7193
   10.680    6.8352
   10.815    6.6667
   10.950    6.5929
   11.085    6.8562
   11.220    6.9826
   11.355    6.8668
   11.490    6.0032
   11.625    6.2559
   11.760    6.4771
   11.895    6.5192
   12.030    6.4034
   12.165    5.8768
   12.300    6.2981
   12.435    6.1085
   12.570    5.9084
   12.705    5.8557
   12.840    5.7293
   12.975    6.1717
   13.110    5.7820
   13.245    5.9926
   13.380    6.3296
   13.515    6.2138
   13.650    5.9926
   13.785    6.3823
   13.920    6.0348
   14.055    6.2770
   14.190    5.6767
   14.325    5.6135
   14.460    5.6029
   14.595    6.0874
   14.730    5.8347
   14.865    5.8031
   15.000    5.8347
   15.135    6.1611
   15.270    5.8136
   15.405    6.0558
   15.540    5.9505
   15.675    5.9400
   15.810    5.6029
   15.945    6.0242
   16.080    5.9926
   16.215    5.8136
   16.350    5.8452
   16.485    5.8136
   16.620    6.3928
   16.755    5.5398
   16.890    5.7609
   17.025    6.1927
   17.160    6.0348
   17.295    6.1295
   17.430    5.8347
   17.565    5.6661
   17.700    5.6977
   17.835    6.2349
   17.970    6.0558
   18.105    6.0558
   18.240    5.9189
   18.375    6.0558
   18.510    5.9505
   18.645    6.2243
   18.780    6.2138
   18.915    6.1717
   19.050    6.4771
   19.185    6.2454
   19.320    5.9821
   19.455    6.1401
   19.590    5.9294
   19.725    6.4350
   19.860    5.9189
   19.995    5.9821
   20.130    6.3928
   20.265    5.8557
   20.400    6.7404
   20.535    6.1401
   20.670    6.2033
   20.805    6.1401
   20.940    6.1295
   21.075    6.0032
   21.210    5.9400
   21.345    6.4560
   21.480    6.1822
   21.615    5.9610
   21.750    6.1927
   21.885    6.2665
   22.020    6.7720
   22.155    6.3191
   22.290    6.4034
   22.425    6.3191
   22.560    6.7299
   22.695    6.0664
   22.830    6.2243
   22.965    5.9610
   23.100    6.3823
   23.235    6.2875
   23.370    6.1190
   23.505    6.7720
   23.640    6.1927
   23.775    6.0664
   23.910    6.1190
   24.045    6.4771
   24.180    6.3086
   24.315    6.1506
   24.450    5.6556
   24.585    6.3507
   24.720    6.1506
   24.855    5.8662
   24.990    6.1611
   25.125    5.5819
   25.260    5.6872
   25.395    5.8768
   25.530    5.8347
   25.665    5.6345
   25.800    5.9505
   25.935    5.9821
   26.070    5.9189
   26.205    5.8452
   26.340    5.7504
   26.475    5.5924
   26.610    5.7820
   26.745    5.5608
   26.880    5.7293
   27.015    5.8136
   27.150    5.5924
   27.285    5.8768
   27.420    5.3818
   27.555    5.4976
   27.690    5.5082
   27.825    5.4344
   27.960    5.9400
   28.095    5.6661
   28.230    5.6977
   28.365    5.6029
   28.500    5.2554
   28.635    5.3818
   28.770    5.3712
   28.905    5.7083
   29.040    5.6135
   29.175    4.9816
   29.310    5.5292
   29.445    4.9289
   29.580    5.3081
   29.715    4.9500
   29.850    5.1817
   29.985    5.2027
   30.120    5.4344
   30.255    5.0026
   30.390    5.2133
   30.525    5.1606
   30.660    5.2238
   30.795    5.1501
   30.930    5.2343
   31.065    5.2133
   31.200    4.6867
   31.335    4.5392
   31.470    5.0764
   31.605    5.1501
   31.740    4.9710
   31.875    5.1185
   32.010    5.2554
   32.145    5.9294
   32.280    4.8552
   32.415    4.7499
   32.550    4.5603
   32.685    4.5182
   32.820    4.6867
   32.955    4.5708
   33.090    4.6972
   33.225    4.3181
   33.360    4.8657
   33.495    4.6130
   33.630    4.6867
   33.765    4.9078
   33.900    4.9710
   34.035    4.5182
   34.170    4.6445
   34.305    4.2865
   34.440    4.4339
   34.575    4.5498
   34.710    4.3602
   34.845    4.2443
   34.980    4.7499
   35.115    4.3813
   35.250    4.4444
   35.385    4.5076
   35.520    4.5076
   35.655    4.2233
   35.790    4.2127
   35.925    4.1601
   36.060    4.0969
   36.195    4.4023
   36.330    4.4339
   36.465    4.3813
   36.600    4.3075
   36.735    4.2549
   36.870    4.4760
   37.005    4.0337
   37.140    4.3181
   37.275    4.1811
   37.410    4.1180
   37.545    4.3918
   37.680    4.1601
   37.815    4.1706
   37.950    4.4550
   38.085    3.8863
   38.220    4.4655
   38.355    4.1285
   38.490    4.3602
   38.625    4.4023
   38.760    4.1390
   38.895    4.0969
   39.030    4.1285
   39.165    3.9600
   39.300    3.8547
   39.435    3.9916
   39.570    4.2338
   39.705    4.1285
   39.840    3.9810
   39.975    4.0337
   39.990    4.1917