File: data/PXRD/PXRD_KE-192_Cu-Ka1_capillary-1mm_5s-deg.xyd
    1.500   21.8325
    1.635   19.5471
    1.770   18.2938
    1.905   15.7873
    2.040   14.5761
    2.175   13.8073
    2.310   12.8805
    2.445   11.6693
    2.580   10.7636
    2.715   10.5424
    2.850    9.9210
    2.985   10.5529
    3.120   11.1532
    3.255   13.0911
    3.390   16.8615
    3.525   25.4344
    3.660   43.8757
    3.795   98.2307
    3.930   42.9700
    4.065    9.8473
    4.200    7.2354
    4.335    6.5403
    4.470    6.0874
    4.605    5.8452
    4.740    5.1606
    4.875    5.5082
    5.010    6.5298
    5.145    7.9305
    5.280   11.5429
    5.415   25.9189
    5.550   14.9658
    5.685    5.8136
    5.820    5.1080
    5.955    4.7604
    6.090    4.8341
    6.225    4.5287
    6.360    5.0132
    6.495    5.3923
    6.630    7.5197
    6.765   10.6793
    6.900    4.5919
    7.035    4.8236
    7.170    4.7815
    7.305    4.8131
    7.440    4.4971
    7.575    5.0237
    7.710    8.5940
    7.845    7.0353
    7.980    4.5076
    8.115    4.3181
    8.250    4.4444
    8.385    3.9073
    8.520    4.5182
    8.655    4.6867
    8.790    4.4550
    8.925    4.4444
    9.060    4.6130
    9.195    4.4444
    9.330    5.7293
    9.465   10.0263
    9.600   11.4271
    9.735    4.6445
    9.870    3.9073
   10.005    4.5076
   10.140    4.9710
   10.275    8.2991
   10.410    5.0026
   10.545    4.6130
   10.680    3.8863
   10.815    4.2338
   10.950    5.8557
   11.085    6.8352
   11.220    4.2022
   11.355    4.2233
   11.490    4.5076
   11.625    5.6240
   11.760    6.4771
   11.895    4.2549
   12.030    3.6967
   12.165    4.0758
   12.300    4.4128
   12.435    3.9284
   12.570    3.7809
   12.705    4.0864
   12.840    4.5603
   12.975    7.1301
   13.110    4.0337
   13.245    3.8336
   13.380    3.7388
   13.515    5.0869
   13.650    3.8547
   13.785    3.9916
   13.920    3.8863
   14.055    5.9189
   14.190    3.9389
   14.325    3.7493
   14.460    3.4123
   14.595    3.6651
   14.730    3.7177
   14.865    3.7809
   15.000    4.0232
   15.135    4.3707
   15.270    3.9073
   15.405    3.7072
   15.540    3.6124
   15.675    3.9494
   15.810    3.9494
   15.945    3.6440
   16.080    4.1917
   16.215    4.0758
   16.350    3.6546
   16.485    3.8968
   16.620    4.2233
   16.755    3.8336
   16.890    3.9389
   17.025    4.9078
   17.160    4.6445
   17.295    4.1285
   17.430    3.9810
   17.565    3.9284
   17.700    3.7493
   17.835    3.7283
   17.970    4.2549
   18.105    3.8863
   18.240    3.9073
   18.375    4.0864
   18.510    3.6546
   18.645    4.0653
   18.780    3.8757
   18.915    4.2970
   19.050    4.1601
   19.185    3.8863
   19.320    3.5598
   19.455    4.0232
   19.590    4.1074
   19.725    4.0758
   19.860    3.7388
   19.995    3.8863
   20.130    3.7915
   20.265    4.1180
   20.400    5.0448
   20.535    4.2654
   20.670    3.9389
   20.805    3.8757
   20.940    3.6230
   21.075    3.8968
   21.210    3.7177
   21.345    3.5492
   21.480    3.9179
   21.615    3.6756
   21.750    4.1811
   21.885    4.6130
   22.020    3.8547
   22.155    4.3707
   22.290    4.2127
   22.425    4.1706
   22.560    5.2238
   22.695    4.5814
   22.830    4.5708
   22.965    5.3712
   23.100    4.3286
   23.235    4.3286
   23.370    4.0337
   23.505    3.8547
   23.640    3.9600
   23.775    3.6862
   23.910    4.1917
   24.045    4.1390
   24.180    3.8968
   24.315    3.7388
   24.450    4.0232
   24.585    4.0021
   24.720    3.9284
   24.855    3.7177
   24.990    3.5176
   25.125    3.7704
   25.260    4.3286
   25.395    3.8336
   25.530    3.8863
   25.665    3.8547
   25.800    4.6867
   25.935    4.0653
   26.070    3.7915
   26.205    3.9705
   26.340    3.6124
   26.475    3.7177
   26.610    3.5808
   26.745    3.6124
   26.880    3.6124
   27.015    3.9179
   27.150    3.9389
   27.285    3.4229
   27.420    3.2438
   27.555    3.4966
   27.690    3.8863
   27.825    3.7599
   27.960    4.2233
   28.095    4.2127
   28.230    3.7809
   28.365    3.5387
   28.500    4.0653
   28.635    3.5492
   28.770    3.4123
   28.905    3.7809
   29.040    3.7809
   29.175    3.6546
   29.310    3.3807
   29.445    3.7915
   29.580    3.3702
   29.715    3.4650
   29.850    3.5282
   29.985    3.1385
   30.120    3.4544
   30.255    3.5914
   30.390    3.6546
   30.525    3.5598
   30.660    3.8336
   30.795    3.3281
   30.930    3.4018
   31.065    3.3807
   31.200    2.9384
   31.335    3.1806
   31.470    3.4229
   31.605    3.2438
   31.740    3.6756
   31.875    3.4123
   32.010    4.4444
   32.145    4.2233
   32.280    2.9595
   32.415    3.3281
   32.550    3.1912
   32.685    3.0016
   32.820    3.2122
   32.955    3.2438
   33.090    3.3175
   33.225    2.7909
   33.360    3.2438
   33.495    3.0016
   33.630    3.0016
   33.765    3.4755
   33.900    3.6756
   34.035    3.0858
   34.170    3.3281
   34.305    3.2438
   34.440    3.2965
   34.575    3.0437
   34.710    3.3807
   34.845    3.1385
   34.980    3.2859
   35.115    2.8436
   35.250    3.1174
   35.385    3.0542
   35.520    3.2543
   35.655    3.0016
   35.790    3.3070
   35.925    3.0226
   36.060    3.0332
   36.195    2.9595
   36.330    3.2333
   36.465    2.9910
   36.600    2.9384
   36.735    2.9489
   36.870    3.1490
   37.005    3.2122
   37.140    3.0226
   37.275    2.7383
   37.410    3.0964
   37.545    3.1490
   37.680    3.1069
   37.815    3.1280
   37.950    3.1280
   38.085    2.8436
   38.220    2.7383
   38.355    3.0753
   38.490    3.0858
   38.625    2.9910
   38.760    2.9700
   38.895    2.6119
   39.030    3.1596
   39.165    2.9910
   39.300    2.9279
   39.435    2.7488
   39.570    2.6540
   39.705    2.6856
   39.840    3.0753
   39.975    2.9173
   39.990    2.9805