File: data/PXRD/PXRD_KE-145_Cu-Ka1_capillary-1mm_5s-deg.xyd
    1.500   15.0922
    1.635   12.9437
    1.770   11.7430
    1.905   10.3212
    2.040    9.3839
    2.175    9.1943
    2.310    7.9200
    2.445    8.1622
    2.580    7.5724
    2.715    7.1090
    2.850    7.3302
    2.985    6.9300
    3.120    6.9089
    3.255    6.6140
    3.390    6.5298
    3.525    6.5508
    3.660    6.5403
    3.795    6.5087
    3.930    6.2559
    4.065    6.5613
    4.200    6.2559
    4.335    6.2349
    4.470    6.6667
    4.605    6.6245
    4.740    6.3928
    4.875    6.3823
    5.010    6.6983
    5.145    6.7299
    5.280    6.6877
    5.415    6.5929
    5.550    6.5824
    5.685    6.9826
    5.820    6.4455
    5.955    6.4982
    6.090    6.5298
    6.225    6.2138
    6.360    6.6140
    6.495    6.3296
    6.630    5.9505
    6.765    6.2243
    6.900    6.6983
    7.035    6.2033
    7.170    6.5298
    7.305    6.6561
    7.440    6.4139
    7.575    6.4244
    7.710    6.4350
    7.845    6.7720
    7.980    6.6456
    8.115    6.3507
    8.250    6.6667
    8.385    6.7825
    8.520    6.8773
    8.655    6.9616
    8.790    7.1827
    8.925    6.7615
    9.060    6.8984
    9.195    6.8562
    9.330    6.8878
    9.465    6.9616
    9.600    7.0353
    9.735    7.2459
    9.870    7.3091
   10.005    6.7720
   10.140    7.1511
   10.275    6.8668
   10.410    6.7193
   10.545    7.0985
   10.680    6.9616
   10.815    6.8352
   10.950    6.6877
   11.085    6.7509
   11.220    6.8773
   11.355    6.2349
   11.490    6.5192
   11.625    6.7615
   11.760    6.3402
   11.895    6.6035
   12.030    6.1717
   12.165    6.2243
   12.300    6.2665
   12.435    5.9400
   12.570    5.8241
   12.705    5.6767
   12.840    5.9400
   12.975    6.3507
   13.110    6.1401
   13.245    6.0032
   13.380    5.9294
   13.515    5.8768
   13.650    6.1611
   13.785    5.8136
   13.920    5.7609
   14.055    5.5398
   14.190    5.6767
   14.325    6.0558
   14.460    5.8347
   14.595    5.8978
   14.730    5.8241
   14.865    5.5924
   15.000    5.9610
   15.135    6.0032
   15.270    5.9294
   15.405    5.8662
   15.540    5.9505
   15.675    5.9400
   15.810    6.1822
   15.945    6.0137
   16.080    6.0979
   16.215    6.6035
   16.350    6.1717
   16.485    5.5292
   16.620    5.9189
   16.755    6.1401
   16.890    5.9926
   17.025    5.8557
   17.160    6.0348
   17.295    5.7820
   17.430    5.4134
   17.565    5.9084
   17.700    5.7715
   17.835    5.9716
   17.970    6.2770
   18.105    5.8241
   18.240    6.3928
   18.375    6.4876
   18.510    5.9294
   18.645    6.1295
   18.780    6.0242
   18.915    6.4034
   19.050    6.1717
   19.185    6.0979
   19.320    5.8873
   19.455    6.0032
   19.590    5.8978
   19.725    6.2875
   19.860    5.7715
   19.995    5.9294
   20.130    6.2138
   20.265    6.3718
   20.400    6.0979
   20.535    6.0979
   20.670    6.2454
   20.805    6.1085
   20.940    6.0453
   21.075    6.2981
   21.210    5.9716
   21.345    6.2665
   21.480    5.9505
   21.615    6.0769
   21.750    6.0558
   21.885    6.5087
   22.020    6.4034
   22.155    6.2033
   22.290    6.2033
   22.425    6.2981
   22.560    6.1295
   22.695    6.4666
   22.830    6.4139
   22.965    6.3928
   23.100    6.2875
   23.235    6.2033
   23.370    6.5508
   23.505    6.3296
   23.640    6.3507
   23.775    6.2349
   23.910    6.2875
   24.045    6.4771
   24.180    6.2454
   24.315    6.1822
   24.450    5.6556
   24.585    6.0874
   24.720    6.2033
   24.855    5.9505
   24.990    6.2981
   25.125    6.4244
   25.260    6.0874
   25.395    6.2454
   25.530    6.4560
   25.665    5.8347
   25.800    6.1822
   25.935    6.3191
   26.070    6.0769
   26.205    6.2349
   26.340    5.8452
   26.475    5.8347
   26.610    5.9926
   26.745    5.9610
   26.880    5.9189
   27.015    5.9084
   27.150    5.9189
   27.285    5.8347
   27.420    6.2665
   27.555    6.1085
   27.690    5.9084
   27.825    5.9189
   27.960    5.8768
   28.095    6.0032
   28.230    5.6345
   28.365    5.7820
   28.500    5.9189
   28.635    5.4450
   28.770    5.8978
   28.905    5.8662
   29.040    5.7820
   29.175    5.8241
   29.310    5.1606
   29.445    5.3818
   29.580    6.0137
   29.715    5.4344
   29.850    5.3818
   29.985    5.4134
   30.120    5.3081
   30.255    5.1711
   30.390    5.2343
   30.525    5.5292
   30.660    5.5503
   30.795    5.8031
   30.930    5.4450
   31.065    5.1711
   31.200    5.4134
   31.335    5.2133
   31.470    5.5187
   31.605    5.0237
   31.740    5.2449
   31.875    5.7504
   32.010    5.4239
   32.145    5.5398
   32.280    5.1290
   32.415    5.3186
   32.550    5.4028
   32.685    5.1922
   32.820    5.0658
   32.955    5.0869
   33.090    4.9816
   33.225    4.8973
   33.360    5.0237
   33.495    4.9289
   33.630    4.9605
   33.765    4.6024
   33.900    4.8657
   34.035    5.0132
   34.170    5.1080
   34.305    4.6656
   34.440    5.2765
   34.575    4.9500
   34.710    4.8552
   34.845    4.7815
   34.980    5.0974
   35.115    4.8552
   35.250    4.7604
   35.385    4.6235
   35.520    4.5287
   35.655    4.6972
   35.790    4.5498
   35.925    4.8131
   36.060    4.6972
   36.195    4.6656
   36.330    4.6235
   36.465    4.5076
   36.600    4.8552
   36.735    4.3391
   36.870    4.2865
   37.005    4.6551
   37.140    4.3813
   37.275    4.6235
   37.410    4.6340
   37.545    4.3391
   37.680    4.6130
   37.815    4.6656
   37.950    4.6656
   38.085    4.3075
   38.220    4.5814
   38.355    4.6445
   38.490    4.7815
   38.625    4.4760
   38.760    4.4760
   38.895    4.5919
   39.030    4.6130
   39.165    4.2338
   39.300    4.7815
   39.435    4.7183
   39.570    4.4128
   39.705    4.5603
   39.840    4.4550
   39.975    4.3918
   39.990    4.6656