File: data/PXRD/PXRD_KE-327_Cu-Ka1_capillary-1mm_3s-deg.xyd
    1.500    9.4085
    1.665    7.7234
    1.830    6.1260
    1.995    6.1962
    2.160    5.3537
    2.325    4.6867
    2.490    4.5989
    2.655    4.0723
    2.820    3.8617
    2.985    3.7564
    3.150    3.7213
    3.315    3.5282
    3.480    3.7388
    3.645    3.8617
    3.810    3.3702
    3.975    3.2473
    4.140    3.8617
    4.305    3.8090
    4.470    3.5106
    4.635    3.3702
    4.800    3.6335
    4.965    3.5808
    5.130    3.1771
    5.295    3.6159
    5.460    3.2824
    5.625    3.6335
    5.790    3.7388
    5.955    3.5457
    6.120    3.6335
    6.285    3.6862
    6.450    3.6159
    6.615    3.4755
    6.780    3.7739
    6.945    3.7388
    7.110    3.9846
    7.275    3.5106
    7.440    3.6510
    7.605    3.8968
    7.770    4.1250
    7.935    3.8617
    8.100    3.7739
    8.265    4.0021
    8.430    4.0197
    8.595    3.9670
    8.760    3.8090
    8.925    3.7213
    9.090    4.1250
    9.255    4.0197
    9.420    3.8441
    9.585    4.5638
    9.750    4.3532
    9.915    4.4234
   10.080    4.7569
   10.245    4.4409
   10.410    4.5989
   10.575    4.4409
   10.740    4.1952
   10.905    4.0021
   11.070    4.3181
   11.235    3.9846
   11.400    3.5457
   11.565    3.7564
   11.730    3.8617
   11.895    3.7213
   12.060    4.0021
   12.225    3.3702
   12.390    3.2649
   12.555    3.7739
   12.720    3.4931
   12.885    3.4404
   13.050    3.6510
   13.215    3.7388
   13.380    3.1245
   13.545    3.0718
   13.710    3.4755
   13.875    3.4229
   14.040    3.3000
   14.205    3.7739
   14.370    3.0016
   14.535    3.4053
   14.700    3.5633
   14.865    3.1420
   15.030    3.3877
   15.195    3.2824
   15.360    3.7037
   15.525    3.5633
   15.690    3.2122
   15.855    3.6510
   16.020    3.2122
   16.185    3.6686
   16.350    3.6159
   16.515    3.7388
   16.680    3.5106
   16.845    3.3351
   17.010    3.7388
   17.175    3.6862
   17.340    3.5106
   17.505    3.4404
   17.670    3.5106
   17.835    3.4053
   18.000    3.4580
   18.165    3.6159
   18.330    3.3877
   18.495    3.1420
   18.660    3.7037
   18.825    3.6335
   18.990    3.8266
   19.155    3.5808
   19.320    3.6335
   19.485    3.6159
   19.650    3.8266
   19.815    3.3877
   19.980    3.5106
   20.145    3.2473
   20.310    3.6686
   20.475    3.2298
   20.640    3.3000
   20.805    3.6335
   20.970    3.7915
   21.135    3.7213
   21.300    3.5984
   21.465    4.0372
   21.630    3.9670
   21.795    3.3702
   21.960    3.5633
   22.125    3.8266
   22.290    4.0021
   22.455    3.8792
   22.620    3.4229
   22.785    3.5984
   22.950    3.5633
   23.115    3.6510
   23.280    3.9670
   23.445    3.2649
   23.610    3.4755
   23.775    3.7037
   23.940    3.5457
   24.105    3.8090
   24.270    3.8441
   24.435    3.4755
   24.600    3.5808
   24.765    3.4404
   24.930    3.3702
   25.095    3.3175
   25.260    3.4404
   25.425    3.4404
   25.590    3.8090
   25.755    3.4404
   25.920    3.3175
   26.085    3.5282
   26.250    3.3702
   26.415    3.1069
   26.580    3.4404
   26.745    3.3877
   26.910    3.6335
   27.075    3.1947
   27.240    3.6335
   27.405    3.2298
   27.570    3.1420
   27.735    3.4580
   27.900    3.1596
   28.065    3.7213
   28.230    3.1420
   28.395    3.5106
   28.560    3.2824
   28.725    2.9840
   28.890    3.2298
   29.055    3.4755
   29.220    3.5282
   29.385    2.9138
   29.550    2.5979
   29.715    3.1069
   29.880    2.7207
   30.045    3.0191
   30.210    2.9665
   30.375    3.0191
   30.540    3.0542
   30.705    2.8436
   30.870    3.2298
   31.035    2.8260
   31.200    3.1596
   31.365    2.6681
   31.530    3.1069
   31.695    2.8963
   31.860    2.9314
   32.025    2.8085
   32.190    3.0016
   32.355    2.6856
   32.520    2.8260
   32.685    3.0191
   32.850    3.1771
   33.015    2.6505
   33.180    2.5628
   33.345    2.7558
   33.510    2.5628
   33.675    2.3872
   33.840    2.4223
   34.005    2.5979
   34.170    2.8963
   34.335    3.0191
   34.500    2.9665
   34.665    2.8612
   34.830    2.8963
   34.995    2.4399
   35.160    2.5452
   35.325    2.5452
   35.490    2.4574
   35.655    2.5101
   35.820    2.5803
   35.985    2.6330
   36.150    2.5101
   36.315    2.8612
   36.480    2.6856
   36.645    2.5101
   36.810    2.4223
   36.975    2.4750
   37.140    2.3521
   37.305    2.4048
   37.470    2.4399
   37.635    2.3697
   37.800    2.3697
   37.965    2.3697
   38.130    2.5101
   38.295    2.5979
   38.460    2.5452
   38.625    2.3521
   38.790    2.3872
   38.955    2.2995
   39.120    2.6505
   39.285    2.2643
   39.450    2.7734
   39.615    2.2819
   39.780    2.7558
   39.945    2.5979
   40.110    1.9484
   40.275    2.4048
   40.440    2.4925
   40.605    2.2468
   40.770    2.7558
   40.935    2.4925
   41.100    2.3346
   41.265    2.5276
   41.430    2.6154
   41.595    2.5276
   41.760    2.4399
   41.925    2.3521
   42.090    2.4048
   42.255    2.4750
   42.420    2.1941
   42.585    2.6856
   42.750    2.3346
   42.915    2.2117
   43.080    2.4399
   43.245    2.2819
   43.410    2.3697
   43.575    2.4048
   43.740    2.5803
   43.905    2.6681
   44.070    2.1766
   44.235    2.2468
   44.400    2.3697
   44.565    2.3697
   44.730    2.4048
   44.895    2.4925
   45.060    2.3872
   45.225    2.2117
   45.390    2.1941
   45.555    2.2995
   45.720    2.0537
   45.885    2.1766
   46.050    2.1766
   46.215    1.9133
   46.380    2.0888
   46.545    2.2468
   46.710    2.3170
   46.875    2.6681
   47.040    2.3521
   47.205    2.0537
   47.370    2.5628
   47.535    2.0888
   47.700    2.1590
   47.865    2.2995
   48.030    2.1415
   48.195    2.1064
   48.360    2.1590
   48.525    2.3697
   48.690    2.0713
   48.855    2.3170
   49.020    1.8606
   49.185    2.0713
   49.350    2.3521
   49.515    2.1766
   49.680    2.2292
   49.845    2.0713
   49.980    2.2468