File: data/PXRD/PXRD_KE-216_Co-Ka1_capillary-1mm_5s-deg.xyd
    1.500   17.6565
    1.635   15.2702
    1.770   13.0444
    1.905   10.3585
    2.040    8.9460
    2.175    7.5227
    2.310    6.6025
    2.445    5.5752
    2.580    4.7619
    2.715    4.7084
    2.850    3.9700
    2.985    3.8416
    3.120    3.5955
    3.255    3.5634
    3.390    3.8630
    3.525    4.1520
    3.660    4.6442
    3.795    6.4526
    3.930    9.8127
    4.065   12.3382
    4.200    4.2483
    4.335    3.5848
    4.470    3.8951
    4.605    4.6442
    4.740    5.8106
    4.875    4.8368
    5.010    3.6490
    5.145    2.4719
    5.280    1.6372
    5.415    1.4018
    5.550    1.4553
    5.685    1.2092
    5.820    1.0915
    5.955    1.2841
    6.090    1.1022
    6.225    1.0166
    6.360    0.9952
    6.495    1.1343
    6.630    1.1022
    6.765    0.8133
    6.900    1.1771
    7.035    1.0808
    7.170    1.0059
    7.305    0.9845
    7.440    1.1771
    7.575    1.1022
    7.710    1.0808
    7.845    1.3055
    7.980    1.7657
    8.115    2.1937
    8.250    1.1985
    8.385    1.1129
    8.520    1.1129
    8.655    1.1022
    8.790    1.1129
    8.925    1.1878
    9.060    1.3269
    9.195    1.1664
    9.330    1.4660
    9.465    1.1022
    9.600    1.2413
    9.735    1.2734
    9.870    1.2092
   10.005    1.2734
   10.140    1.0808
   10.275    1.1129
   10.410    1.2413
   10.545    1.0380
   10.680    1.2841
   10.815    1.0059
   10.950    1.0487
   11.085    1.0380
   11.220    1.0808
   11.355    1.1878
   11.490    1.1557
   11.625    0.9631
   11.760    0.9952
   11.895    0.9952
   12.030    1.1022
   12.165    1.2627
   12.300    1.0273
   12.435    1.0059
   12.570    1.0594
   12.705    0.8347
   12.840    1.1236
   12.975    1.0380
   13.110    0.9631
   13.245    0.9845
   13.380    0.8882
   13.515    1.1878
   13.650    0.9417
   13.785    1.0273
   13.920    0.9845
   14.055    0.9524
   14.190    1.0166
   14.325    0.8882
   14.460    0.9310
   14.595    1.1771
   14.730    0.9738
   14.865    1.0808
   15.000    1.0059
   15.135    0.9952
   15.270    0.9631
   15.405    1.0380
   15.540    1.0273
   15.675    1.0273
   15.810    0.8347
   15.945    0.9524
   16.080    0.9631
   16.215    0.9417
   16.350    0.9096
   16.485    0.9203
   16.620    0.9952
   16.755    0.8026
   16.890    0.9524
   17.025    0.9631
   17.160    0.8668
   17.295    0.8561
   17.430    0.9310
   17.565    0.9203
   17.700    1.0059
   17.835    0.8989
   17.970    0.8775
   18.105    0.8775
   18.240    1.0380
   18.375    0.9310
   18.510    0.7919
   18.645    0.7812
   18.780    0.8989
   18.915    0.9524
   19.050    0.9310
   19.185    0.9738
   19.320    0.9631
   19.455    0.8775
   19.590    1.1022
   19.725    0.9952
   19.860    0.9738
   19.995    1.0059
   20.130    0.8454
   20.265    0.8775
   20.400    0.8347
   20.535    0.8882
   20.670    0.9631
   20.805    0.9417
   20.940    1.1450
   21.075    1.1771
   21.210    0.8133
   21.345    1.0915
   21.480    0.9524
   21.615    0.9845
   21.750    0.9310
   21.885    0.9310
   22.020    0.8989
   22.155    0.8133
   22.290    1.0594
   22.425    0.9417
   22.560    1.1771
   22.695    0.9524
   22.830    1.0273
   22.965    0.8882
   23.100    0.9845
   23.235    1.1236
   23.370    0.8454
   23.505    0.9524
   23.640    0.9845
   23.775    0.9310
   23.910    0.9952
   24.045    0.9738
   24.180    1.0273
   24.315    0.9845
   24.450    1.0701
   24.585    1.1878
   24.720    0.9310
   24.855    1.0808
   24.990    0.9631
   25.125    1.0166
   25.260    0.9417
   25.395    1.0273
   25.530    0.9524
   25.665    0.9096
   25.800    1.1450
   25.935    1.0059
   26.070    0.9310
   26.205    0.9845
   26.340    0.8668
   26.475    0.8989
   26.610    0.9310
   26.745    0.7277
   26.880    0.9203
   27.015    1.0487
   27.150    0.8561
   27.285    0.8133
   27.420    0.8026
   27.555    0.8347
   27.690    1.0059
   27.825    0.9310
   27.960    0.8882
   28.095    0.8989
   28.230    0.8347
   28.365    0.7598
   28.500    0.7705
   28.635    0.8454
   28.770    0.8133
   28.905    0.8026
   29.040    0.7491
   29.175    0.7277
   29.310    0.7491
   29.445    0.8026
   29.580    0.9096
   29.715    0.7491
   29.850    0.6314
   29.985    0.8989
   30.120    0.7812
   30.255    0.7812
   30.390    0.7384
   30.525    0.7277
   30.660    0.6849
   30.795    0.6100
   30.930    0.7063
   31.065    0.6635
   31.200    0.6849
   31.335    0.7491
   31.470    0.7491
   31.605    0.8454
   31.740    0.6421
   31.875    0.7491
   32.010    0.7919
   32.145    0.6421
   32.280    0.6314
   32.415    0.6956
   32.550    0.7705
   32.685    0.6635
   32.820    0.7598
   32.955    0.6100
   33.090    0.6314
   33.225    0.5671
   33.360    0.6956
   33.495    0.5993
   33.630    0.6314
   33.765    0.6635
   33.900    0.5886
   34.035    0.5993
   34.170    0.6100
   34.305    0.6635
   34.440    0.6207
   34.575    0.6635
   34.710    0.6742
   34.845    0.6314
   34.980    0.5886
   35.115    0.5457
   35.250    0.5136
   35.385    0.5350
   35.520    0.6528
   35.655    0.5671
   35.790    0.5457
   35.925    0.5029
   36.060    0.4922
   36.195    0.6100
   36.330    0.6314
   36.465    0.5457
   36.600    0.4922
   36.735    0.5993
   36.870    0.5136
   37.005    0.5886
   37.140    0.4708
   37.275    0.4601
   37.410    0.5243
   37.545    0.5029
   37.680    0.5671
   37.815    0.4280
   37.950    0.4173
   38.085    0.5886
   38.220    0.4708
   38.355    0.3103
   38.490    0.4387
   38.625    0.4494
   38.760    0.5564
   38.895    0.3852
   39.030    0.5564
   39.165    0.5029
   39.300    0.5350
   39.435    0.5029
   39.570    0.4494
   39.705    0.3210
   39.840    0.5029
   39.975    0.3745
   39.990    0.3959