File: data/PXRD/PXRD_KE-003_Cu-Ka1_capillary-1mm_5s-deg.xyd
    1.500   11.6377
    1.635   10.0579
    1.770    9.0153
    1.905    7.9516
    2.040    7.0142
    2.175    6.3612
    2.310    6.3296
    2.445    5.7399
    2.580    5.6977
    2.715    6.2875
    2.850    6.2770
    2.985    5.7715
    3.120    6.4876
    3.255    7.3512
    3.390    8.0885
    3.525    9.8262
    3.660    9.5524
    3.795    7.7725
    3.930    6.8352
    4.065    6.4350
    4.200    5.6135
    4.335    5.3923
    4.470    5.3607
    4.605    5.2975
    4.740    5.5924
    4.875    5.0553
    5.010    5.2027
    5.145    4.9710
    5.280    5.2659
    5.415    5.5398
    5.550    5.4871
    5.685    4.9816
    5.820    4.9078
    5.955    4.8973
    6.090    4.8868
    6.225    4.6972
    6.360    4.3497
    6.495    4.6340
    6.630    4.5814
    6.765    4.3813
    6.900    5.0658
    7.035    5.1606
    7.170    5.5292
    7.305    5.5608
    7.440    5.6029
    7.575    5.7820
    7.710    6.3928
    7.845    6.0979
    7.980    6.2875
    8.115    5.3607
    8.250    4.6445
    8.385    4.1811
    8.520    3.9705
    8.655    3.7072
    8.790    3.8863
    8.925    3.7809
    9.060    3.5492
    9.195    3.5914
    9.330    3.6440
    9.465    3.6967
    9.600    3.4439
    9.735    3.5387
    9.870    3.5071
   10.005    3.5071
   10.140    3.7177
   10.275    3.8547
   10.410    3.6230
   10.545    3.8125
   10.680    3.6440
   10.815    3.7809
   10.950    3.4860
   11.085    3.7704
   11.220    3.6546
   11.355    3.7388
   11.490    3.8231
   11.625    3.8231
   11.760    3.6651
   11.895    3.9810
   12.030    3.7599
   12.165    3.7283
   12.300    3.7809
   12.435    3.8441
   12.570    3.7493
   12.705    3.6651
   12.840    3.5282
   12.975    3.8020
   13.110    3.3491
   13.245    3.5176
   13.380    3.5808
   13.515    3.4544
   13.650    3.7388
   13.785    3.7599
   13.920    3.6756
   14.055    3.7493
   14.190    3.7493
   14.325    3.6862
   14.460    3.7283
   14.595    3.9494
   14.730    3.8863
   14.865    4.2654
   15.000    3.9179
   15.135    4.2127
   15.270    3.6756
   15.405    3.9389
   15.540    3.8968
   15.675    3.6230
   15.810    3.7599
   15.945    3.9494
   16.080    3.6230
   16.215    4.0126
   16.350    3.4544
   16.485    3.7177
   16.620    3.4650
   16.755    3.6335
   16.890    3.8968
   17.025    3.5808
   17.160    3.7493
   17.295    3.6440
   17.430    4.0021
   17.565    3.4439
   17.700    3.8757
   17.835    4.0126
   17.970    4.1285
   18.105    4.1601
   18.240    4.3707
   18.375    4.3075
   18.510    4.4971
   18.645    4.4760
   18.780    4.1285
   18.915    4.0548
   19.050    4.6024
   19.185    4.2759
   19.320    4.1496
   19.455    4.6656
   19.590    4.0969
   19.725    4.3075
   19.860    4.3918
   19.995    4.0442
   20.130    4.5603
   20.265    4.4866
   20.400    4.2127
   20.535    4.5603
   20.670    4.4655
   20.805    4.7499
   20.940    4.5814
   21.075    4.4444
   21.210    4.5814
   21.345    4.5498
   21.480    4.3391
   21.615    4.4866
   21.750    4.5814
   21.885    4.6656
   22.020    4.5708
   22.155    4.4128
   22.290    4.4339
   22.425    4.2654
   22.560    4.2022
   22.695    4.4023
   22.830    4.2865
   22.965    4.1285
   23.100    4.4971
   23.235    3.8863
   23.370    4.1706
   23.505    4.4550
   23.640    4.1074
   23.775    4.3286
   23.910    4.1390
   24.045    4.2233
   24.180    3.7704
   24.315    3.7283
   24.450    4.3286
   24.585    4.0126
   24.720    4.1390
   24.855    3.8968
   24.990    3.8757
   25.125    3.9389
   25.260    3.9284
   25.395    4.1180
   25.530    3.6019
   25.665    3.8968
   25.800    3.6230
   25.935    4.0021
   26.070    3.6756
   26.205    3.6862
   26.340    3.4966
   26.475    3.5176
   26.610    3.3491
   26.745    3.5387
   26.880    3.6756
   27.015    3.7809
   27.150    3.4966
   27.285    3.5598
   27.420    3.7388
   27.555    3.3491
   27.690    3.2543
   27.825    3.3807
   27.960    3.2438
   28.095    3.1912
   28.230    3.2859
   28.365    3.1069
   28.500    3.4334
   28.635    3.1069
   28.770    3.2543
   28.905    3.4123
   29.040    3.1912
   29.175    3.0648
   29.310    3.0964
   29.445    3.1701
   29.580    3.0542
   29.715    3.0332
   29.850    3.1385
   29.985    3.0437
   30.120    2.7593
   30.255    2.9805
   30.390    3.0648
   30.525    2.8963
   30.660    3.0121
   30.795    2.9068
   30.930    3.1806
   31.065    3.0648
   31.200    3.0648
   31.335    2.7909
   31.470    2.9279
   31.605    2.8331
   31.740    2.5592
   31.875    2.4329
   32.010    2.8331
   32.145    2.6119
   32.280    2.7488
   32.415    2.5171
   32.550    2.4961
   32.685    2.4118
   32.820    2.2538
   32.955    2.6330
   33.090    2.3802
   33.225    2.2222
   33.360    2.3170
   33.495    2.3591
   33.630    2.2959
   33.765    2.0853
   33.900    2.2749
   34.035    2.1696
   34.170    2.2749
   34.305    2.1064
   34.440    2.2012
   34.575    1.9168
   34.710    2.2222
   34.845    2.2117
   34.980    2.1801
   35.115    1.9063
   35.250    2.0221
   35.385    2.2538
   35.520    2.1590
   35.655    2.0537
   35.790    1.9063
   35.925    1.8115
   36.060    1.9695
   36.195    1.8431
   36.330    1.9168
   36.465    1.7483
   36.600    1.8325
   36.735    1.6851
   36.870    1.7483
   37.005    1.7588
   37.140    1.6324
   37.275    1.6535
   37.410    1.4955
   37.545    1.6430
   37.680    1.5482
   37.815    1.6956
   37.950    1.4850
   38.085    1.7062
   38.220    1.6640
   38.355    1.5587
   38.490    1.7799
   38.625    1.5587
   38.760    1.5482
   38.895    1.5798
   39.030    1.7799
   39.165    1.5377
   39.300    1.6430
   39.435    1.5271
   39.570    1.6956
   39.705    1.6008
   39.840    1.6430
   39.975    1.4745
   39.990    1.4745