File: data/PXRD/PXRD_KE-097-2_Cu-Ka1_capillary-1mm_5s-deg.xyd
    1.500   26.7404
    1.635   24.4128
    1.770   22.1696
    1.905   20.3686
    2.040   19.6946
    2.175   19.1153
    2.310   19.2417
    2.445   20.5266
    2.580   22.4223
    2.715   25.0448
    2.850   28.0147
    2.985   34.9868
    3.120   44.8131
    3.255   59.4734
    3.390   93.5334
    3.525   81.4955
    3.660   40.5371
    3.795   42.0853
    3.930   47.7830
    4.065   41.3481
    4.200   26.8352
    4.335   16.6298
    4.470   11.7325
    4.605    9.6472
    4.740    8.7836
    4.875    7.9516
    5.010    7.7093
    5.145    7.7725
    5.280    7.0353
    5.415    7.0142
    5.550    7.3091
    5.685    7.0248
    5.820    6.8878
    5.955    6.2559
    6.090    6.6245
    6.225    7.0774
    6.360    7.1301
    6.495    7.2565
    6.630    8.1517
    6.765    9.9842
    6.900   14.3444
    7.035   11.8483
    7.170    7.7725
    7.305    7.3723
    7.440    7.3934
    7.575    7.8252
    7.710    8.4466
    7.845    9.3628
    7.980    9.7525
    8.115    9.4997
    8.250    9.6261
    8.385    8.5203
    8.520    7.9726
    8.655    7.6567
    8.790    6.7088
    8.925    6.8878
    9.060    6.3296
    9.195    6.5403
    9.330    6.5719
    9.465    6.5298
    9.600    6.3612
    9.735    5.9505
    9.870    6.5719
   10.005    5.8557
   10.140    6.2665
   10.275    7.1827
   10.410    6.9510
   10.545    6.5719
   10.680    6.4876
   10.815    6.3823
   10.950    6.2138
   11.085    6.5087
   11.220    6.6877
   11.355    6.2981
   11.490    6.6877
   11.625    6.1190
   11.760    6.7615
   11.895    6.4455
   12.030    6.6667
   12.165    6.6035
   12.300    6.6667
   12.435    6.0979
   12.570    6.3402
   12.705    6.8246
   12.840    6.3718
   12.975    6.1401
   13.110    6.6035
   13.245    6.2454
   13.380    6.3507
   13.515    5.9294
   13.650    6.3612
   13.785    6.0137
   13.920    6.4982
   14.055    6.0664
   14.190    6.5929
   14.325    6.0874
   14.460    6.0453
   14.595    5.7715
   14.730    5.9084
   14.865    6.1401
   15.000    5.8873
   15.135    6.1085
   15.270    6.0664
   15.405    6.0979
   15.540    6.2033
   15.675    5.8347
   15.810    6.3086
   15.945    6.2033
   16.080    6.1190
   16.215    5.7820
   16.350    5.8452
   16.485    6.4455
   16.620    5.3397
   16.755    5.6556
   16.890    6.0874
   17.025    5.9294
   17.160    5.9716
   17.295    5.7399
   17.430    5.8031
   17.565    6.0664
   17.700    6.0769
   17.835    5.4450
   17.970    5.8873
   18.105    5.8662
   18.240    6.0874
   18.375    6.0558
   18.510    6.1506
   18.645    6.2138
   18.780    6.1717
   18.915    5.9610
   19.050    6.0558
   19.185    6.4034
   19.320    5.9926
   19.455    6.3823
   19.590    6.2243
   19.725    6.4244
   19.860    6.4666
   19.995    6.4560
   20.130    6.4982
   20.265    6.6035
   20.400    6.3191
   20.535    6.3086
   20.670    6.5298
   20.805    6.4982
   20.940    6.4560
   21.075    6.8036
   21.210    6.4771
   21.345    6.5719
   21.480    6.6772
   21.615    6.6245
   21.750    6.2454
   21.885    6.7088
   22.020    6.6877
   22.155    6.6140
   22.290    6.8562
   22.425    6.7825
   22.560    6.6877
   22.695    6.7299
   22.830    6.3191
   22.965    6.7299
   23.100    6.9932
   23.235    6.8036
   23.370    6.4139
   23.505    6.2033
   23.640    6.7930
   23.775    6.3823
   23.910    6.6772
   24.045    6.3191
   24.180    6.7193
   24.315    6.7930
   24.450    6.3612
   24.585    6.1822
   24.720    6.1190
   24.855    6.6983
   24.990    6.2349
   25.125    6.1611
   25.260    6.2665
   25.395    6.0558
   25.530    6.4455
   25.665    6.0769
   25.800    6.2033
   25.935    5.4976
   26.070    6.0032
   26.205    5.7715
   26.340    5.9189
   26.475    5.7609
   26.610    6.0137
   26.745    5.7504
   26.880    5.9084
   27.015    5.8662
   27.150    5.7293
   27.285    5.3712
   27.420    6.0769
   27.555    5.7083
   27.690    5.8662
   27.825    5.8873
   27.960    5.7609
   28.095    6.1611
   28.230    5.8768
   28.365    5.7083
   28.500    5.4344
   28.635    5.2343
   28.770    5.3397
   28.905    5.4028
   29.040    5.9505
   29.175    5.6767
   29.310    5.5292
   29.445    5.4871
   29.580    5.3712
   29.715    5.2659
   29.850    5.4766
   29.985    5.6240
   30.120    5.0026
   30.255    5.1395
   30.390    5.3607
   30.525    5.4028
   30.660    5.5503
   30.795    5.4871
   30.930    5.4555
   31.065    4.9394
   31.200    5.3081
   31.335    4.9921
   31.470    4.8131
   31.605    5.2659
   31.740    5.7715
   31.875    5.3397
   32.010    5.4450
   32.145    5.2659
   32.280    5.1080
   32.415    5.1185
   32.550    5.0764
   32.685    4.8236
   32.820    5.1185
   32.955    5.0342
   33.090    5.0026
   33.225    4.7815
   33.360    5.1711
   33.495    5.2554
   33.630    5.1501
   33.765    5.2238
   33.900    4.7604
   34.035    4.9816
   34.170    4.7499
   34.305    4.8447
   34.440    4.6867
   34.575    4.7709
   34.710    4.2338
   34.845    4.5814
   34.980    4.4760
   35.115    4.5392
   35.250    4.6656
   35.385    4.6024
   35.520    4.9289
   35.655    4.9605
   35.790    4.6656
   35.925    4.6551
   36.060    4.6445
   36.195    4.4760
   36.330    4.6867
   36.465    4.6972
   36.600    4.3075
   36.735    4.7393
   36.870    4.4655
   37.005    4.3707
   37.140    4.3286
   37.275    4.5708
   37.410    4.3707
   37.545    4.3707
   37.680    4.4866
   37.815    4.3602
   37.950    4.3181
   38.085    4.6130
   38.220    4.1706
   38.355    4.5814
   38.490    4.5498
   38.625    4.5076
   38.760    4.3918
   38.895    4.5814
   39.030    4.2970
   39.165    4.3813
   39.300    4.2970
   39.435    4.5287
   39.570    4.5392
   39.705    4.2338
   39.840    4.4971
   39.975    4.4234
   39.990    3.9600