File: data/PXRD/PXRD_KE-209_Co-Ka1_capillary-1mm_5s-deg.xyd
    1.500    9.0851
    1.635    7.1054
    1.770    5.7464
    1.905    4.5158
    2.040    4.2483
    2.175    3.3173
    2.310    3.0712
    2.445    2.5254
    2.580    2.1295
    2.715    1.8406
    2.850    1.7014
    2.985    1.5516
    3.120    1.5516
    3.255    1.4553
    3.390    1.1985
    3.525    1.2520
    3.660    1.1557
    3.795    1.0273
    3.930    1.1664
    4.065    1.0915
    4.200    1.0166
    4.335    0.9417
    4.470    1.0166
    4.605    1.1129
    4.740    0.8454
    4.875    0.9417
    5.010    1.0273
    5.145    0.8561
    5.280    1.0166
    5.415    0.8882
    5.550    0.8347
    5.685    0.7598
    5.820    0.8561
    5.955    1.0166
    6.090    0.8561
    6.225    0.8026
    6.360    0.9096
    6.495    0.8561
    6.630    0.7812
    6.765    0.7812
    6.900    0.9310
    7.035    0.9524
    7.170    0.8882
    7.305    0.9310
    7.440    0.9310
    7.575    0.8989
    7.710    0.9524
    7.845    0.8668
    7.980    0.8882
    8.115    0.8668
    8.250    0.9524
    8.385    1.0380
    8.520    0.9417
    8.655    0.7598
    8.790    0.9310
    8.925    0.8989
    9.060    1.1236
    9.195    0.9310
    9.330    1.0166
    9.465    0.8989
    9.600    1.0059
    9.735    0.8882
    9.870    0.9952
   10.005    1.2627
   10.140    1.0594
   10.275    1.0915
   10.410    0.9524
   10.545    1.0380
   10.680    0.9310
   10.815    1.1129
   10.950    0.9738
   11.085    1.0166
   11.220    1.1022
   11.355    1.1450
   11.490    1.2734
   11.625    1.3376
   11.760    1.1878
   11.895    1.2199
   12.030    1.1022
   12.165    1.1557
   12.300    1.1557
   12.435    1.1557
   12.570    1.2520
   12.705    1.1343
   12.840    1.1450
   12.975    1.3590
   13.110    1.1557
   13.245    1.0059
   13.380    0.9524
   13.515    1.0273
   13.650    1.0915
   13.785    1.0380
   13.920    0.8989
   14.055    0.8989
   14.190    0.7812
   14.325    0.7170
   14.460    0.8026
   14.595    0.7812
   14.730    0.8240
   14.865    0.7919
   15.000    0.9096
   15.135    0.9096
   15.270    0.8026
   15.405    0.8989
   15.540    0.8775
   15.675    0.7919
   15.810    0.7812
   15.945    0.7598
   16.080    0.6635
   16.215    0.7812
   16.350    0.8347
   16.485    0.7705
   16.620    0.9310
   16.755    0.7277
   16.890    0.8989
   17.025    0.7812
   17.160    0.6849
   17.295    0.8026
   17.430    0.6421
   17.565    0.8561
   17.700    0.6742
   17.835    0.7919
   17.970    0.7598
   18.105    0.7598
   18.240    0.7812
   18.375    0.7277
   18.510    0.7919
   18.645    0.7170
   18.780    0.8989
   18.915    0.7491
   19.050    0.8561
   19.185    0.7491
   19.320    0.8026
   19.455    0.7384
   19.590    0.8561
   19.725    0.7063
   19.860    0.7277
   19.995    0.8240
   20.130    0.6207
   20.265    0.8989
   20.400    0.6849
   20.535    0.8347
   20.670    0.6100
   20.805    0.6742
   20.940    0.6421
   21.075    0.7598
   21.210    0.7812
   21.345    0.7063
   21.480    0.8882
   21.615    0.8454
   21.750    0.7063
   21.885    0.7812
   22.020    0.6421
   22.155    0.8775
   22.290    0.8561
   22.425    0.9417
   22.560    0.7491
   22.695    0.8882
   22.830    0.8561
   22.965    0.8133
   23.100    0.9524
   23.235    0.7919
   23.370    0.9203
   23.505    0.8668
   23.640    0.9096
   23.775    0.9096
   23.910    0.8775
   24.045    0.8133
   24.180    0.8668
   24.315    0.8133
   24.450    0.8775
   24.585    0.8561
   24.720    0.8026
   24.855    0.9417
   24.990    0.8026
   25.125    0.7705
   25.260    0.7919
   25.395    0.7919
   25.530    0.8561
   25.665    0.9738
   25.800    0.8668
   25.935    1.0594
   26.070    0.9524
   26.205    0.9952
   26.340    0.9096
   26.475    0.9096
   26.610    0.9952
   26.745    0.8026
   26.880    0.9524
   27.015    0.7598
   27.150    0.7919
   27.285    0.9096
   27.420    0.8668
   27.555    0.7277
   27.690    0.9203
   27.825    0.8775
   27.960    0.7491
   28.095    0.9310
   28.230    0.8026
   28.365    0.8668
   28.500    1.0915
   28.635    0.8026
   28.770    0.9203
   28.905    0.9524
   29.040    0.9738
   29.175    0.8133
   29.310    0.8347
   29.445    0.8668
   29.580    0.9631
   29.715    0.6314
   29.850    0.7919
   29.985    0.8454
   30.120    0.7063
   30.255    0.8240
   30.390    0.8240
   30.525    0.8347
   30.660    0.7491
   30.795    0.7705
   30.930    0.7491
   31.065    0.7598
   31.200    0.6956
   31.335    0.8775
   31.470    0.7598
   31.605    0.7277
   31.740    0.6207
   31.875    0.7598
   32.010    0.6635
   32.145    0.7812
   32.280    0.6849
   32.415    0.6421
   32.550    0.7170
   32.685    0.6849
   32.820    0.7491
   32.955    0.6849
   33.090    0.6421
   33.225    0.5778
   33.360    0.6956
   33.495    0.6742
   33.630    0.9524
   33.765    0.7277
   33.900    0.5671
   34.035    0.7277
   34.170    0.5671
   34.305    0.6635
   34.440    0.5993
   34.575    0.4815
   34.710    0.5886
   34.845    0.5457
   34.980    0.6100
   35.115    0.6421
   35.250    0.5671
   35.385    0.6100
   35.520    0.7170
   35.655    0.4280
   35.790    0.5671
   35.925    0.5136
   36.060    0.6635
   36.195    0.4815
   36.330    0.5886
   36.465    0.6207
   36.600    0.4601
   36.735    0.5993
   36.870    0.5778
   37.005    0.5029
   37.140    0.5243
   37.275    0.5886
   37.410    0.4601
   37.545    0.4601
   37.680    0.4922
   37.815    0.5029
   37.950    0.4280
   38.085    0.4173
   38.220    0.4494
   38.355    0.4922
   38.490    0.5671
   38.625    0.4815
   38.760    0.4815
   38.895    0.4708
   39.030    0.3852
   39.165    0.4066
   39.300    0.5136
   39.435    0.3424
   39.570    0.3745
   39.705    0.4173
   39.840    0.3103
   39.975    0.4066
   39.990    0.3745