File: data/PXRD/PXRD_KE-228_Co-Ka1_capillary-1mm_5s-deg_MOCOF-1.xyd
    1.500    4.9652
    1.635    4.2376
    1.770    3.9486
    1.905    3.8523
    2.040    3.6169
    2.175    3.2638
    2.310    2.9642
    2.445    2.8785
    2.580    2.6217
    2.715    2.5575
    2.850    2.5575
    2.985    2.9749
    3.120    2.9320
    3.255    2.9428
    3.390    3.4457
    3.525    3.6276
    3.660    4.1948
    3.795    5.4789
    3.930    7.3194
    4.065   10.1338
    4.200   14.2643
    4.335   23.1354
    4.470   51.7817
    4.605    5.1043
    4.740    2.0439
    4.875    1.4232
    5.010    1.4874
    5.145    1.3804
    5.280    1.4874
    5.415    1.3804
    5.550    1.4446
    5.685    1.6586
    5.820    1.8192
    5.955    2.1830
    6.090    3.2959
    6.225    4.9545
    6.360   11.6961
    6.495    1.6051
    6.630    1.1878
    6.765    1.1022
    6.900    0.8775
    7.035    0.9952
    7.170    1.1129
    7.305    1.0166
    7.440    1.2092
    7.575    1.1771
    7.710    1.6586
    7.845    4.8689
    7.980    0.9096
    8.115    1.0487
    8.250    0.9738
    8.385    0.8775
    8.520    1.0273
    8.655    1.1878
    8.790    1.2306
    8.925    1.7549
    9.060    5.1578
    9.195    0.8240
    9.330    0.7598
    9.465    1.0701
    9.600    0.7705
    9.735    0.9096
    9.870    0.8561
   10.005    0.7384
   10.140    1.3376
   10.275    0.8133
   10.410    0.9310
   10.545    0.7598
   10.680    0.8882
   10.815    1.2092
   10.950    2.0011
   11.085    6.4205
   11.220    1.1985
   11.355    0.7919
   11.490    0.9631
   11.625    0.8240
   11.760    0.8347
   11.895    1.3162
   12.030    3.1033
   12.165    0.7170
   12.300    0.8775
   12.435    0.6742
   12.570    0.8989
   12.705    1.2734
   12.840    3.3280
   12.975    0.6742
   13.110    0.8240
   13.245    0.6742
   13.380    0.7812
   13.515    1.3911
   13.650    3.0605
   13.785    0.7919
   13.920    0.6635
   14.055    0.8668
   14.190    0.8240
   14.325    0.9096
   14.460    0.6956
   14.595    0.6207
   14.730    0.6100
   14.865    0.8133
   15.000    1.2306
   15.135    1.5195
   15.270    0.6421
   15.405    0.6100
   15.540    0.8026
   15.675    0.9417
   15.810    1.0915
   15.945    0.6528
   16.080    0.6528
   16.215    1.0059
   16.350    1.5837
   16.485    0.8882
   16.620    0.5778
   16.755    0.7277
   16.890    0.7170
   17.025    0.6849
   17.160    0.5886
   17.295    0.5993
   17.430    0.7277
   17.565    0.6849
   17.700    0.8026
   17.835    0.6635
   17.970    0.6207
   18.105    0.5243
   18.240    0.5886
   18.375    0.6528
   18.510    0.5243
   18.645    0.6635
   18.780    0.9952
   18.915    0.6956
   19.050    0.6421
   19.185    0.7705
   19.320    1.0808
   19.455    0.6956
   19.590    0.6100
   19.725    0.7384
   19.860    2.0118
   19.995    0.5886
   20.130    0.6956
   20.265    0.6421
   20.400    0.9524
   20.535    0.7598
   20.670    0.6635
   20.805    0.8561
   20.940    0.8026
   21.075    0.5886
   21.210    0.5778
   21.345    0.8775
   21.480    0.8347
   21.615    0.5457
   21.750    0.6849
   21.885    0.7170
   22.020    0.6742
   22.155    0.6849
   22.290    0.5778
   22.425    0.7170
   22.560    0.5993
   22.695    0.8240
   22.830    0.9738
   22.965    0.7170
   23.100    0.7491
   23.235    0.7063
   23.370    0.7277
   23.505    0.6100
   23.640    0.8347
   23.775    1.4232
   23.910    0.6100
   24.045    0.6635
   24.180    0.8882
   24.315    0.6635
   24.450    0.6421
   24.585    0.7598
   24.720    0.6849
   24.855    0.6314
   24.990    0.5457
   25.125    0.6421
   25.260    0.6956
   25.395    0.8668
   25.530    0.7812
   25.665    0.7812
   25.800    0.6742
   25.935    1.1022
   26.070    0.6207
   26.205    0.8882
   26.340    1.4018
   26.475    0.7491
   26.610    1.0808
   26.745    1.6265
   26.880    0.7384
   27.015    0.8240
   27.150    0.7384
   27.285    0.6849
   27.420    0.7812
   27.555    0.5671
   27.690    0.5350
   27.825    0.7812
   27.960    0.8668
   28.095    0.6956
   28.230    0.5671
   28.365    0.6421
   28.500    0.5778
   28.635    0.6635
   28.770    0.6207
   28.905    0.5029
   29.040    0.5350
   29.175    0.6207
   29.310    0.6635
   29.445    0.7705
   29.580    0.5993
   29.715    0.6207
   29.850    0.6207
   29.985    0.6528
   30.120    1.3697
   30.255    0.5136
   30.390    0.5886
   30.525    0.7170
   30.660    0.5457
   30.795    0.7491
   30.930    0.5350
   31.065    0.5778
   31.200    0.5778
   31.335    0.6956
   31.470    0.8882
   31.605    0.7812
   31.740    0.4815
   31.875    0.5993
   32.010    0.6742
   32.145    0.6528
   32.280    0.6207
   32.415    0.5671
   32.550    0.5778
   32.685    0.7063
   32.820    0.8347
   32.955    0.7063
   33.090    0.7063
   33.225    0.8133
   33.360    0.5136
   33.495    0.5564
   33.630    0.5350
   33.765    0.6207
   33.900    0.4815
   34.035    0.5136
   34.170    0.5671
   34.305    0.5993
   34.440    0.5457
   34.575    0.6635
   34.710    0.5886
   34.845    0.6314
   34.980    0.4280
   35.115    0.5350
   35.250    0.5457
   35.385    0.6314
   35.520    0.4494
   35.655    0.5350
   35.790    0.5136
   35.925    0.5671
   36.060    0.5457
   36.195    0.5029
   36.330    0.4708
   36.465    0.4173
   36.600    0.5564
   36.735    0.4601
   36.870    0.5564
   37.005    0.5136
   37.140    0.4601
   37.275    0.6207
   37.410    0.4173
   37.545    0.6100
   37.680    0.4280
   37.815    0.4922
   37.950    0.4708
   38.085    0.3959
   38.220    0.3745
   38.355    0.5029
   38.490    0.5029
   38.625    0.3638
   38.760    0.4708
   38.895    0.4387
   39.030    0.3638
   39.165    0.4280
   39.300    0.3317
   39.435    0.4173
   39.570    0.5886
   39.705    0.4494
   39.840    0.3317
   39.975    0.4494
   39.990    0.4280