File: data/PXRD/PXRD_KE-265_Co-Ka1_film-3mm_3s-deg.xyd
    1.500    4.0842
    1.635    3.3173
    1.770    3.0319
    1.905    2.4790
    2.040    2.4255
    2.175    2.2472
    2.310    2.1759
    2.445    1.8905
    2.580    1.8727
    2.715    1.8013
    2.850    1.6943
    2.985    1.3376
    3.120    1.0701
    3.255    1.6230
    3.390    1.4090
    3.525    1.4981
    3.660    1.6765
    3.795    1.5160
    3.930    1.1949
    4.065    1.4090
    4.200    1.5695
    4.335    1.3733
    4.470    1.5695
    4.605    1.6943
    4.740    1.4803
    4.875    1.8192
    5.010    1.7300
    5.145    1.4090
    5.280    1.4981
    5.415    1.4803
    5.550    1.5695
    5.685    1.6765
    5.820    1.5516
    5.955    1.7478
    6.090    1.5873
    6.225    1.6765
    6.360    1.8727
    6.495    2.0153
    6.630    1.5338
    6.765    1.8905
    6.900    1.5695
    7.035    1.4981
    7.170    1.4625
    7.305    1.4090
    7.440    1.2128
    7.575    1.2663
    7.710    1.3198
    7.845    1.3019
    7.980    1.4625
    8.115    1.1593
    8.250    1.2306
    8.385    1.0879
    8.520    1.2841
    8.655    1.3019
    8.790    0.9809
    8.925    1.2306
    9.060    0.9274
    9.195    0.9988
    9.330    1.0879
    9.465    0.9988
    9.600    0.9274
    9.735    0.7847
    9.870    0.9096
   10.005    1.0523
   10.140    0.9988
   10.275    0.9809
   10.410    1.0879
   10.545    0.9096
   10.680    1.1236
   10.815    1.0166
   10.950    1.0701
   11.085    1.0701
   11.220    1.0166
   11.355    1.0701
   11.490    0.8917
   11.625    0.8561
   11.760    0.8739
   11.895    0.8739
   12.030    1.1771
   12.165    1.1058
   12.300    0.9809
   12.435    0.9274
   12.570    1.0523
   12.705    0.9988
   12.840    1.2128
   12.975    1.1771
   13.110    0.8561
   13.245    0.9096
   13.380    1.1058
   13.515    1.1236
   13.650    0.9274
   13.785    1.0166
   13.920    0.9988
   14.055    0.8382
   14.190    0.9452
   14.325    0.8739
   14.460    1.0523
   14.595    1.0701
   14.730    0.9274
   14.865    1.0344
   15.000    0.7134
   15.135    0.8739
   15.270    0.9274
   15.405    0.8382
   15.540    0.9452
   15.675    0.8561
   15.810    0.7312
   15.945    0.8382
   16.080    0.9274
   16.215    0.7669
   16.350    1.0166
   16.485    1.1771
   16.620    0.8739
   16.755    1.0523
   16.890    0.9096
   17.025    0.9809
   17.160    0.8561
   17.295    0.8917
   17.430    0.9274
   17.565    1.1771
   17.700    0.9452
   17.835    0.9452
   17.970    0.9631
   18.105    0.7491
   18.240    0.8204
   18.375    1.1771
   18.510    0.8382
   18.645    0.8739
   18.780    1.0523
   18.915    0.8917
   19.050    0.9452
   19.185    0.8382
   19.320    0.9809
   19.455    1.0344
   19.590    0.9988
   19.725    1.0701
   19.860    0.6777
   19.995    0.9988
   20.130    0.7847
   20.265    0.8739
   20.400    1.0523
   20.535    0.9096
   20.670    1.0523
   20.805    0.9096
   20.940    0.8204
   21.075    0.9274
   21.210    0.8204
   21.345    0.9988
   21.480    0.9274
   21.615    0.9096
   21.750    0.8917
   21.885    0.8561
   22.020    1.1414
   22.155    1.0166
   22.290    1.3733
   22.425    0.9452
   22.560    0.8917
   22.695    0.9096
   22.830    1.1414
   22.965    0.7847
   23.100    0.8561
   23.235    0.7847
   23.370    0.8561
   23.505    0.9809
   23.640    0.8382
   23.775    0.9988
   23.910    1.0166
   24.045    0.9096
   24.180    0.7669
   24.315    0.8204
   24.450    0.8561
   24.585    0.9274
   24.720    1.0166
   24.855    0.8026
   24.990    1.0166
   25.125    0.8917
   25.260    0.8561
   25.395    0.8026
   25.530    0.8739
   25.665    0.9096
   25.800    0.7491
   25.935    0.7847
   26.070    0.8204
   26.205    0.7134
   26.340    0.6599
   26.475    0.8561
   26.610    0.9274
   26.745    0.5886
   26.880    0.7669
   27.015    0.6777
   27.150    0.7491
   27.285    0.6242
   27.420    0.7312
   27.555    0.7491
   27.690    0.6599
   27.825    0.7847
   27.960    0.5707
   28.095    0.6777
   28.230    0.6777
   28.365    0.8204
   28.500    0.7669
   28.635    0.6421
   28.770    0.7312
   28.905    0.5529
   29.040    0.6421
   29.175    0.6599
   29.310    0.6064
   29.445    0.5172
   29.580    0.7312
   29.715    0.4815
   29.850    0.5350
   29.985    0.5707
   30.120    0.6064
   30.255    0.5707
   30.390    0.5350
   30.525    0.6599
   30.660    0.4637
   30.795    0.7312
   30.930    0.6777
   31.065    0.5172
   31.200    0.5707
   31.335    0.6599
   31.470    0.6242
   31.605    0.7847
   31.740    0.5350
   31.875    0.7134
   32.010    0.4994
   32.145    0.5886
   32.280    0.7134
   32.415    0.5886
   32.550    0.5886
   32.685    0.4102
   32.820    0.4637
   32.955    0.4637
   33.090    0.5350
   33.225    0.4637
   33.360    0.4815
   33.495    0.5529
   33.630    0.5529
   33.765    0.4102
   33.900    0.4459
   34.035    0.5350
   34.170    0.3924
   34.305    0.5707
   34.440    0.5172
   34.575    0.4637
   34.710    0.4280
   34.845    0.4994
   34.980    0.3567
   35.115    0.3745
   35.250    0.4459
   35.385    0.4102
   35.520    0.4815
   35.655    0.3924
   35.790    0.4637
   35.925    0.4280
   36.060    0.4815
   36.195    0.4637
   36.330    0.3567
   36.465    0.3567
   36.600    0.3389
   36.735    0.4102
   36.870    0.2854
   37.005    0.3924
   37.140    0.4280
   37.275    0.3210
   37.410    0.3567
   37.545    0.3032
   37.680    0.3567
   37.815    0.3745
   37.950    0.4815
   38.085    0.3389
   38.220    0.3567
   38.355    0.3210
   38.490    0.4637
   38.625    0.2497
   38.760    0.3389
   38.895    0.3389
   39.030    0.2854
   39.165    0.2854
   39.300    0.3032
   39.435    0.3389
   39.570    0.2140
   39.705    0.3210
   39.840    0.2675
   39.975    0.2675
   39.990    0.4280