File: data/PXRD/PXRD_KE-098_Cu-Ka1_capillary-1mm_5s-deg.xyd
    1.500   20.4634
    1.635   18.2622
    1.770   17.8831
    1.905   16.8404
    2.040   16.3981
    2.175   16.5245
    2.310   18.4097
    2.445   18.1043
    2.580   21.3165
    2.715   23.2859
    2.850   28.4255
    2.985   34.4813
    3.120   45.3818
    3.255   63.9600
    3.390  101.4007
    3.525   87.2459
    3.660   41.2744
    3.795   44.0337
    3.930   50.8689
    4.065   45.8557
    4.200   28.6256
    4.335   17.0300
    4.470   11.6377
    4.605    9.5735
    4.740    7.8673
    4.875    7.1511
    5.010    7.0985
    5.145    6.5508
    5.280    6.5403
    5.415    6.3507
    5.550    6.2243
    5.685    5.7293
    5.820    5.8347
    5.955    5.7504
    6.090    5.4239
    6.225    6.1401
    6.360    6.2981
    6.495    6.6456
    6.630    7.6251
    6.765    9.5629
    6.900   13.7651
    7.035   12.9015
    7.170    7.4566
    7.305    7.2143
    7.440    6.5087
    7.575    7.4039
    7.710    8.1411
    7.845    8.1306
    7.980    8.8573
    8.115    9.0785
    8.250    8.6256
    8.385    7.7725
    8.520    7.3196
    8.655    6.3928
    8.790    6.1611
    8.925    5.6977
    9.060    5.5608
    9.195    5.8662
    9.330    5.6451
    9.465    5.0869
    9.600    5.5187
    9.735    5.4134
    9.870    5.4028
   10.005    5.3081
   10.140    5.1185
   10.275    5.7504
   10.410    5.8873
   10.545    5.7609
   10.680    5.4344
   10.815    5.4976
   10.950    5.1185
   11.085    5.6135
   11.220    5.3923
   11.355    5.2554
   11.490    5.3712
   11.625    5.5819
   11.760    5.8136
   11.895    5.5924
   12.030    5.8452
   12.165    5.5503
   12.300    5.9821
   12.435    5.8136
   12.570    5.3923
   12.705    5.8873
   12.840    5.5819
   12.975    6.0032
   13.110    5.5819
   13.245    5.7083
   13.380    5.3081
   13.515    5.4344
   13.650    5.2765
   13.785    5.4766
   13.920    5.2870
   14.055    5.9084
   14.190    5.6029
   14.325    5.2870
   14.460    5.0869
   14.595    4.8341
   14.730    5.1501
   14.865    5.1501
   15.000    5.2133
   15.135    5.0448
   15.270    5.3397
   15.405    5.1711
   15.540    5.3397
   15.675    5.1606
   15.810    5.2870
   15.945    5.2554
   16.080    5.4976
   16.215    5.5608
   16.350    5.3291
   16.485    5.2765
   16.620    5.3923
   16.755    5.3081
   16.890    5.2975
   17.025    5.2870
   17.160    5.4134
   17.295    4.8236
   17.430    5.4028
   17.565    5.1922
   17.700    5.5503
   17.835    5.6872
   17.970    5.4028
   18.105    5.3186
   18.240    5.4239
   18.375    5.0658
   18.510    5.2343
   18.645    5.2133
   18.780    5.4871
   18.915    5.8978
   19.050    5.5714
   19.185    5.3081
   19.320    5.5608
   19.455    5.5819
   19.590    5.5398
   19.725    6.1717
   19.860    5.6872
   19.995    5.7715
   20.130    5.8662
   20.265    5.8347
   20.400    5.9084
   20.535    5.5924
   20.670    5.9189
   20.805    5.8873
   20.940    6.1295
   21.075    5.6977
   21.210    5.5503
   21.345    5.7293
   21.480    5.7820
   21.615    5.8347
   21.750    6.0874
   21.885    5.7504
   22.020    6.1717
   22.155    5.6767
   22.290    6.1190
   22.425    5.8978
   22.560    5.9926
   22.695    6.2665
   22.830    6.0453
   22.965    5.7504
   23.100    5.7293
   23.235    5.6977
   23.370    5.9610
   23.505    5.8136
   23.640    5.6135
   23.775    5.7399
   23.910    5.6029
   24.045    5.7504
   24.180    5.4555
   24.315    5.5819
   24.450    5.5292
   24.585    5.2765
   24.720    5.7399
   24.855    5.3081
   24.990    5.3607
   25.125    5.2554
   25.260    5.2659
   25.395    5.5398
   25.530    5.9821
   25.665    4.9184
   25.800    5.0974
   25.935    5.4660
   26.070    4.9394
   26.205    5.2659
   26.340    5.0869
   26.475    5.0132
   26.610    5.2133
   26.745    5.3397
   26.880    5.1711
   27.015    5.4766
   27.150    4.9078
   27.285    5.0026
   27.420    4.9710
   27.555    5.0974
   27.690    4.7920
   27.825    5.0764
   27.960    5.3186
   28.095    5.0658
   28.230    5.2027
   28.365    4.9078
   28.500    5.1290
   28.635    4.8763
   28.770    4.6867
   28.905    5.4976
   29.040    4.7077
   29.175    4.9184
   29.310    4.7393
   29.445    4.5603
   29.580    4.6972
   29.715    5.2975
   29.850    4.4550
   29.985    4.7604
   30.120    4.8341
   30.255    4.3707
   30.390    4.8657
   30.525    4.4234
   30.660    4.4655
   30.795    4.5182
   30.930    4.6761
   31.065    4.5182
   31.200    4.7604
   31.335    4.5498
   31.470    4.7288
   31.605    4.4234
   31.740    4.8341
   31.875    4.8236
   32.010    4.7183
   32.145    4.8763
   32.280    4.3391
   32.415    4.4234
   32.550    4.6867
   32.685    4.1390
   32.820    4.3181
   32.955    4.3497
   33.090    4.5498
   33.225    4.5182
   33.360    3.9705
   33.495    4.2759
   33.630    4.1390
   33.765    4.1706
   33.900    4.6235
   34.035    4.5603
   34.170    4.3707
   34.305    4.4971
   34.440    4.2338
   34.575    4.0653
   34.710    4.0548
   34.845    4.0337
   34.980    4.0442
   35.115    3.8757
   35.250    4.0758
   35.385    4.0021
   35.520    4.3075
   35.655    3.9284
   35.790    3.9389
   35.925    3.8020
   36.060    3.9284
   36.195    3.8757
   36.330    3.8968
   36.465    4.0548
   36.600    4.2654
   36.735    3.4966
   36.870    4.0969
   37.005    3.6862
   37.140    3.7388
   37.275    3.7072
   37.410    3.8020
   37.545    3.7072
   37.680    3.8652
   37.815    3.9389
   37.950    3.7388
   38.085    3.8441
   38.220    3.3491
   38.355    3.6651
   38.490    3.7704
   38.625    3.8125
   38.760    3.5492
   38.895    4.1706
   39.030    3.7809
   39.165    3.8863
   39.300    3.3807
   39.435    3.7809
   39.570    4.2759
   39.705    3.5808
   39.840    3.4018
   39.975    3.8125
   39.990    3.7599