File: data/PXRD/PXRD_KE-020_Cu-Ka1_capillary-1mm_5s-deg.xyd
    1.500   44.7499
    1.635   39.8947
    1.770   34.6604
    1.905   32.1432
    2.040   30.5108
    2.175   27.9305
    2.310   26.6456
    2.445   27.4355
    2.580   28.7204
    2.715   28.5413
    2.850   31.7746
    2.985   34.7973
    3.120   40.6003
    3.255   51.8483
    3.390   69.5524
    3.525   75.0290
    3.660   46.4771
    3.795   45.8452
    3.930   44.4760
    4.065   28.9205
    4.200   19.3576
    4.335   15.6609
    4.470   13.0595
    4.605   12.2591
    4.740   11.6798
    4.875   11.2270
    5.010   10.5108
    5.145   10.4160
    5.280   10.7636
    5.415   10.5424
    5.550    9.8157
    5.685    9.6998
    5.820    9.2259
    5.955    8.9942
    6.090    9.0890
    6.225    9.8157
    6.360    9.6998
    6.495   10.3318
    6.630   11.5534
    6.765   12.9121
    6.900   16.7562
    7.035   17.3776
    7.170   11.9747
    7.305   10.8583
    7.440   10.7741
    7.575   11.4587
    7.710   13.8705
    7.845   16.1243
    7.980   15.2607
    8.115   12.9647
    8.250   10.5213
    8.385    9.8368
    8.520    8.8678
    8.655    9.1522
    8.790    8.9731
    8.925    8.7941
    9.060    8.2780
    9.195    8.6045
    9.330    8.8994
    9.465    8.7625
    9.600    8.5308
    9.735    8.9942
    9.870    9.3734
   10.005    9.0047
   10.140    9.1522
   10.275    9.7104
   10.410    9.5735
   10.545    9.8052
   10.680    9.0469
   10.815    9.0469
   10.950    8.6467
   11.085    9.1732
   11.220    8.9942
   11.355    8.4781
   11.490    8.8362
   11.625    8.8994
   11.760    8.7309
   11.895    8.7098
   12.030    8.9837
   12.165    8.6256
   12.300    8.5097
   12.435    8.2991
   12.570    8.6677
   12.705    8.2886
   12.840    8.2780
   12.975    8.2149
   13.110    8.3728
   13.245    8.2359
   13.380    8.3939
   13.515    8.2675
   13.650    7.9094
   13.785    8.4887
   13.920    8.2570
   14.055    8.1517
   14.190    8.1306
   14.325    7.9621
   14.460    7.8989
   14.595    7.7409
   14.730    7.6567
   14.865    7.9937
   15.000    7.8357
   15.135    7.9094
   15.270    8.1306
   15.405    7.8568
   15.540    8.0674
   15.675    8.6361
   15.810    8.0147
   15.945    8.3939
   16.080    7.8989
   16.215    8.2254
   16.350    7.6040
   16.485    7.9621
   16.620    8.1727
   16.755    7.7199
   16.890    8.0253
   17.025    8.1306
   17.160    8.1727
   17.295    7.8884
   17.430    8.6045
   17.565    8.4255
   17.700    8.0779
   17.835    8.5940
   17.970    8.1201
   18.105    8.2675
   18.240    7.5935
   18.375    8.2149
   18.510    9.0469
   18.645    8.6677
   18.780    8.5308
   18.915    8.6256
   19.050    8.0358
   19.185    8.4150
   19.320    8.5413
   19.455    8.2149
   19.590    8.4466
   19.725    8.7309
   19.860    8.6256
   19.995    8.9626
   20.130    9.0995
   20.265    8.4887
   20.400    8.8784
   20.535    8.5097
   20.670    8.5624
   20.805    8.8257
   20.940    8.7836
   21.075    8.6045
   21.210    9.0363
   21.345    8.9521
   21.480    9.0890
   21.615    8.7520
   21.750    9.1311
   21.885    8.9521
   22.020    9.1417
   22.155    8.8152
   22.290    8.6993
   22.425    8.8257
   22.560    9.1732
   22.695    9.4155
   22.830    8.8994
   22.965    8.9837
   23.100    9.0153
   23.235    9.0363
   23.370    8.7098
   23.505    8.5308
   23.640    8.7941
   23.775    8.4360
   23.910    8.2991
   24.045    8.0042
   24.180    8.2886
   24.315    8.5624
   24.450    8.5940
   24.585    8.6361
   24.720    8.5413
   24.855    8.7836
   24.990    8.2991
   25.125    8.4887
   25.260    8.3202
   25.395    8.6256
   25.530    7.8568
   25.665    7.6251
   25.800    8.2464
   25.935    8.0779
   26.070    7.9516
   26.205    7.9094
   26.340    8.0990
   26.475    7.9621
   26.610    7.6988
   26.745    7.4250
   26.880    7.8778
   27.015    8.3728
   27.150    7.7830
   27.285    8.1727
   27.420    8.1306
   27.555    7.3934
   27.690    7.3407
   27.825    7.2249
   27.960    7.7514
   28.095    7.7620
   28.230    7.4460
   28.365    7.6251
   28.500    7.5724
   28.635    7.5408
   28.770    7.2354
   28.905    7.2354
   29.040    7.2565
   29.175    7.1933
   29.310    7.2986
   29.445    7.0985
   29.580    7.2038
   29.715    7.1195
   29.850    7.3723
   29.985    6.6245
   30.120    6.9616
   30.255    7.3512
   30.390    7.0248
   30.525    7.0774
   30.660    6.8668
   30.795    7.0142
   30.930    7.1301
   31.065    6.8141
   31.200    7.0248
   31.335    6.4982
   31.470    6.1085
   31.605    7.0774
   31.740    7.2143
   31.875    6.8141
   32.010    6.9194
   32.145    6.7509
   32.280    6.6456
   32.415    6.9405
   32.550    6.6667
   32.685    6.8246
   32.820    6.6561
   32.955    6.7825
   33.090    6.4350
   33.225    6.6140
   33.360    6.7088
   33.495    6.8878
   33.630    6.2665
   33.765    6.1506
   33.900    6.3296
   34.035    6.5298
   34.170    6.5508
   34.305    6.2559
   34.440    6.6561
   34.575    6.2875
   34.710    6.2349
   34.845    6.1717
   34.980    6.4771
   35.115    6.3191
   35.250    6.5508
   35.385    6.1295
   35.520    6.4982
   35.655    6.2349
   35.790    6.1401
   35.925    6.1295
   36.060    6.0032
   36.195    6.3086
   36.330    6.1190
   36.465    6.1085
   36.600    6.2559
   36.735    6.2138
   36.870    6.3507
   37.005    5.7925
   37.140    6.3296
   37.275    6.0032
   37.410    5.8873
   37.545    6.2454
   37.680    5.8452
   37.815    6.0664
   37.950    6.0242
   38.085    5.9084
   38.220    6.3718
   38.355    5.7504
   38.490    5.8662
   38.625    5.5714
   38.760    5.8452
   38.895    6.2454
   39.030    5.6556
   39.165    5.9294
   39.300    5.9610
   39.435    5.6977
   39.570    6.0874
   39.705    5.7504
   39.840    5.5924
   39.975    5.9294
   39.990    5.5503