File: data/PXRD/PXRD_KE-078_Cu-Ka1_capillary-1mm_5s-deg.xyd
    1.500   44.8447
    1.635   48.6993
    1.770   52.5013
    1.905   59.3260
    2.040   69.6577
    2.175   84.7815
    2.310  107.0248
    2.445  141.4007
    2.580  202.2644
    2.715  361.8220
    2.850  209.1733
    2.985   46.8036
    3.120   20.6003
    3.255   14.1443
    3.390   11.3007
    3.525    9.9737
    3.660    8.6045
    3.795    8.3307
    3.930    8.8362
    4.065    9.8894
    4.200   11.6377
    4.335   13.9863
    4.470   18.0411
    4.605   27.0774
    4.740   45.8347
    4.875   46.6035
    5.010   23.1596
    5.145   11.8483
    5.280   12.3117
    5.415   17.4724
    5.550   28.9415
    5.685   15.0606
    5.820    9.0679
    5.955    5.6345
    6.090    5.2449
    6.225    4.4760
    6.360    4.6235
    6.495    4.4234
    6.630    4.8341
    6.765    5.1290
    6.900    6.0453
    7.035    7.9094
    7.170   12.0274
    7.305   19.6314
    7.440   18.7467
    7.575   14.9236
    7.710    8.0463
    7.845    5.3923
    7.980    4.0969
    8.115    4.3707
    8.250    4.4023
    8.385    4.4971
    8.520    3.8968
    8.655    3.6862
    8.790    3.5808
    8.925    3.3386
    9.060    3.4229
    9.195    3.6019
    9.330    4.1390
    9.465    4.8236
    9.600    5.7820
    9.735    5.7293
    9.870    6.1927
   10.005    6.3612
   10.140    5.4239
   10.275    5.0553
   10.410    4.7077
   10.545    3.7072
   10.680    3.6335
   10.815    3.3386
   10.950    3.6335
   11.085    3.3281
   11.220    3.4755
   11.355    3.5387
   11.490    3.4966
   11.625    3.3913
   11.760    3.8125
   11.895    3.7915
   12.030    3.8125
   12.165    4.0548
   12.300    4.2759
   12.435    4.7499
   12.570    4.0864
   12.705    3.9179
   12.840    3.5914
   12.975    3.5914
   13.110    4.0126
   13.245    3.5808
   13.380    4.1285
   13.515    4.1601
   13.650    3.8020
   13.785    4.1496
   13.920    3.9600
   14.055    4.2549
   14.190    4.1917
   14.325    4.4550
   14.460    3.9916
   14.595    4.5076
   14.730    4.5603
   14.865    4.8868
   15.000    5.0342
   15.135    4.8763
   15.270    4.5287
   15.405    4.4234
   15.540    4.4128
   15.675    4.3286
   15.810    4.3286
   15.945    4.4866
   16.080    4.4866
   16.215    4.0021
   16.350    4.0442
   16.485    4.2549
   16.620    4.4760
   16.755    4.4760
   16.890    4.4971
   17.025    4.2022
   17.160    4.4444
   17.295    4.0969
   17.430    4.2233
   17.565    4.3602
   17.700    4.4023
   17.835    4.1601
   17.970    4.3391
   18.105    4.3602
   18.240    4.0548
   18.375    4.3918
   18.510    4.3391
   18.645    4.6445
   18.780    4.4971
   18.915    4.4444
   19.050    4.2233
   19.185    4.5708
   19.320    4.2549
   19.455    4.0864
   19.590    4.4234
   19.725    4.1917
   19.860    4.1285
   19.995    4.3813
   20.130    4.1601
   20.265    4.2759
   20.400    4.2443
   20.535    4.2443
   20.670    3.8336
   20.805    4.1706
   20.940    3.9600
   21.075    3.9600
   21.210    4.2970
   21.345    3.9810
   21.480    4.0969
   21.615    4.0653
   21.750    4.1917
   21.885    3.8020
   22.020    3.9179
   22.155    3.7809
   22.290    3.7388
   22.425    4.2443
   22.560    4.1601
   22.695    3.7388
   22.830    4.0126
   22.965    3.8863
   23.100    3.8968
   23.235    3.8547
   23.370    3.7704
   23.505    4.2127
   23.640    4.0126
   23.775    3.8231
   23.910    3.8968
   24.045    4.2233
   24.180    4.2970
   24.315    4.0864
   24.450    4.1811
   24.585    4.0337
   24.720    4.3602
   24.855    5.1185
   24.990    5.3712
   25.125    5.4028
   25.260    5.3923
   25.395    5.6556
   25.530    5.4450
   25.665    4.9816
   25.800    4.9605
   25.935    4.8025
   26.070    4.3286
   26.205    4.3391
   26.340    4.1285
   26.475    4.0548
   26.610    3.7915
   26.745    3.7072
   26.880    3.6862
   27.015    3.5492
   27.150    3.6440
   27.285    3.5703
   27.420    3.4123
   27.555    3.5703
   27.690    3.5914
   27.825    3.3597
   27.960    3.3175
   28.095    3.3175
   28.230    3.2438
   28.365    3.3597
   28.500    3.0964
   28.635    2.9805
   28.770    3.0226
   28.905    3.1385
   29.040    2.7172
   29.175    2.9068
   29.310    2.7278
   29.445    2.9805
   29.580    2.6962
   29.715    2.9805
   29.850    3.0542
   29.985    2.8015
   30.120    2.7067
   30.255    2.6435
   30.390    2.7172
   30.525    2.6119
   30.660    2.7699
   30.795    2.8541
   30.930    2.5066
   31.065    2.4118
   31.200    2.6224
   31.335    2.1696
   31.470    2.5276
   31.605    2.4855
   31.740    2.9805
   31.875    3.0016
   32.010    2.2538
   32.145    2.5908
   32.280    2.3486
   32.415    2.2538
   32.550    2.3381
   32.685    2.1801
   32.820    2.2433
   32.955    2.2959
   33.090    2.1485
   33.225    1.9589
   33.360    1.9168
   33.495    1.9273
   33.630    2.1380
   33.765    1.9800
   33.900    2.3486
   34.035    2.4118
   34.170    2.0642
   34.305    2.0116
   34.440    1.8957
   34.575    1.8431
   34.710    1.8431
   34.845    1.9063
   34.980    1.9273
   35.115    1.7694
   35.250    1.7588
   35.385    1.6640
   35.520    1.6851
   35.655    1.8431
   35.790    1.6640
   35.925    1.6430
   36.060    1.6324
   36.195    1.4745
   36.330    1.6430
   36.465    1.4429
   36.600    1.5271
   36.735    1.6114
   36.870    1.5903
   37.005    1.4113
   37.140    1.7904
   37.275    1.4113
   37.410    1.5587
   37.545    1.6324
   37.680    1.4218
   37.815    1.3586
   37.950    1.5061
   38.085    1.5271
   38.220    1.4955
   38.355    1.2849
   38.490    1.4429
   38.625    1.3586
   38.760    1.5377
   38.895    1.6324
   39.030    1.5166
   39.165    1.4113
   39.300    1.4955
   39.435    1.5166
   39.570    1.6746
   39.705    1.4323
   39.840    1.5587
   39.975    1.4323
   39.990    1.3797