File: data/PXRD/PXRD_KE-129_Cu-Ka1_film-3mm_5s-deg.xyd
    1.500   19.3892
    1.635   16.8404
    1.770   15.4081
    1.905   13.9863
    2.040   13.2070
    2.175   12.0800
    2.310   11.9221
    2.445   11.0795
    2.580   10.9426
    2.715   11.3744
    2.850   12.7436
    2.985   14.9763
    3.120   19.0521
    3.255   28.4255
    3.390   49.2996
    3.525   48.9626
    3.660   21.4639
    3.795   21.4007
    3.930   24.8025
    4.065   27.6461
    4.200   23.9494
    4.335   16.9879
    4.470   11.7536
    4.605    9.2680
    4.740    8.4992
    4.875    7.6356
    5.010    7.4987
    5.145    7.9621
    5.280    8.2359
    5.415    8.2886
    5.550    8.3834
    5.685    7.8357
    5.820    7.5619
    5.955    7.0879
    6.090    6.9932
    6.225    6.8562
    6.360    6.7088
    6.495    6.2559
    6.630    6.9510
    6.765    7.5935
    6.900    9.5629
    7.035    9.6261
    7.170    6.6667
    7.305    6.2665
    7.440    5.8241
    7.575    6.0874
    7.710    5.6661
    7.845    6.1190
    7.980    6.2559
    8.115    6.5824
    8.250    6.3612
    8.385    6.3928
    8.520    6.2033
    8.655    5.7609
    8.790    5.3818
    8.925    5.3923
    9.060    5.0448
    9.195    4.8973
    9.330    4.9289
    9.465    4.9289
    9.600    4.7288
    9.735    4.5919
    9.870    4.9184
   10.005    4.7077
   10.140    4.7815
   10.275    4.9605
   10.410    5.0448
   10.545    4.9289
   10.680    4.7183
   10.815    4.9184
   10.950    5.1290
   11.085    5.0132
   11.220    4.8131
   11.355    4.8763
   11.490    4.7183
   11.625    4.6235
   11.760    4.8657
   11.895    4.8868
   12.030    4.8657
   12.165    5.2449
   12.300    4.9500
   12.435    4.8973
   12.570    4.8552
   12.705    4.9394
   12.840    5.0026
   12.975    4.7183
   13.110    4.8131
   13.245    4.6340
   13.380    4.5603
   13.515    4.2127
   13.650    4.4971
   13.785    4.6656
   13.920    4.8131
   14.055    4.7920
   14.190    5.0132
   14.325    5.0342
   14.460    4.8341
   14.595    4.8341
   14.730    4.3602
   14.865    4.5814
   15.000    4.8341
   15.135    4.8131
   15.270    4.7499
   15.405    4.4339
   15.540    4.4550
   15.675    4.4339
   15.810    4.4971
   15.945    4.6761
   16.080    4.6024
   16.215    4.6867
   16.350    4.5287
   16.485    4.2759
   16.620    4.6340
   16.755    4.4655
   16.890    4.3918
   17.025    4.7604
   17.160    4.4971
   17.295    4.6235
   17.430    4.6656
   17.565    4.6235
   17.700    4.5182
   17.835    4.6130
   17.970    4.5498
   18.105    4.2970
   18.240    4.5708
   18.375    4.3286
   18.510    4.3497
   18.645    4.2654
   18.780    4.3497
   18.915    4.4971
   19.050    4.5498
   19.185    4.5182
   19.320    4.4339
   19.455    4.2970
   19.590    4.4866
   19.725    4.4234
   19.860    4.4234
   19.995    4.2865
   20.130    4.6235
   20.265    4.7183
   20.400    4.3602
   20.535    4.5603
   20.670    4.4760
   20.805    4.3918
   20.940    4.6551
   21.075    4.6130
   21.210    4.5287
   21.345    4.4023
   21.480    4.5076
   21.615    4.6024
   21.750    4.5182
   21.885    4.3813
   22.020    4.5498
   22.155    4.1390
   22.290    4.3075
   22.425    4.1285
   22.560    4.1074
   22.695    3.9073
   22.830    4.3075
   22.965    4.4550
   23.100    4.3075
   23.235    4.2338
   23.370    4.2338
   23.505    4.3918
   23.640    3.7704
   23.775    3.8125
   23.910    3.8652
   24.045    4.0337
   24.180    4.2759
   24.315    3.9916
   24.450    3.9705
   24.585    3.9916
   24.720    4.1811
   24.855    3.8757
   24.990    3.9073
   25.125    4.0969
   25.260    3.9284
   25.395    3.9179
   25.530    3.9389
   25.665    3.8441
   25.800    3.8863
   25.935    4.1285
   26.070    3.9810
   26.205    3.6124
   26.340    3.5071
   26.475    3.8441
   26.610    3.7704
   26.745    3.5598
   26.880    3.6335
   27.015    3.6019
   27.150    3.6124
   27.285    3.4334
   27.420    3.5071
   27.555    3.6651
   27.690    3.4439
   27.825    3.4018
   27.960    3.5071
   28.095    3.6019
   28.230    3.3913
   28.365    3.2438
   28.500    3.2754
   28.635    3.5071
   28.770    3.4334
   28.905    3.1912
   29.040    3.3702
   29.175    3.3702
   29.310    3.3491
   29.445    3.3386
   29.580    3.3491
   29.715    3.3070
   29.850    3.0542
   29.985    2.7593
   30.120    2.4961
   30.255    3.1385
   30.390    3.0648
   30.525    3.2754
   30.660    3.1174
   30.795    3.0437
   30.930    2.8541
   31.065    3.1385
   31.200    2.8436
   31.335    3.2122
   31.470    3.1596
   31.605    2.9068
   31.740    3.0858
   31.875    3.0016
   32.010    2.9805
   32.145    2.9384
   32.280    2.7699
   32.415    3.0753
   32.550    2.7699
   32.685    2.8541
   32.820    2.8752
   32.955    2.6330
   33.090    2.8752
   33.225    3.0648
   33.360    2.7909
   33.495    2.5592
   33.630    2.8541
   33.765    2.8647
   33.900    2.6962
   34.035    2.8752
   34.170    2.8647
   34.305    2.8436
   34.440    2.8436
   34.575    2.8436
   34.710    2.6962
   34.845    2.8225
   34.980    2.7278
   35.115    2.7278
   35.250    2.7278
   35.385    2.7488
   35.520    2.7804
   35.655    2.4118
   35.790    2.6224
   35.925    2.6856
   36.060    2.9173
   36.195    2.4223
   36.330    2.8541
   36.465    2.7804
   36.600    2.6119
   36.735    2.7278
   36.870    2.8752
   37.005    2.6646
   37.140    2.7699
   37.275    2.7278
   37.410    2.6224
   37.545    2.6646
   37.680    2.7593
   37.815    2.5803
   37.950    2.8225
   38.085    2.3697
   38.220    2.6224
   38.355    2.5592
   38.490    2.4961
   38.625    2.6962
   38.760    2.4855
   38.895    2.4750
   39.030    2.6646
   39.165    2.4961
   39.300    2.4855
   39.435    2.6646
   39.570    2.7909
   39.705    2.7172
   39.840    2.3697
   39.975    2.7067
   39.990    2.7278