File: data/PXRD/PXRD_KE-244_Co-Ka1_capillary-1mm_5s-deg.xyd
    1.500    1.4553
    1.635    1.3162
    1.770    1.0808
    1.905    1.0808
    2.040    0.8454
    2.175    0.8882
    2.310    0.6849
    2.445    0.6956
    2.580    0.5243
    2.715    0.5886
    2.850    0.6956
    2.985    0.5778
    3.120    0.4708
    3.255    0.6528
    3.390    0.7705
    3.525    1.1129
    3.660    2.0118
    3.795    0.6100
    3.930    0.5886
    4.065    0.5457
    4.200    0.4708
    4.335    0.4173
    4.470    0.5564
    4.605    0.4922
    4.740    0.5029
    4.875    0.4387
    5.010    0.5886
    5.145    0.4815
    5.280    0.4815
    5.415    0.5886
    5.550    0.5243
    5.685    0.6635
    5.820    0.3638
    5.955    0.4708
    6.090    0.4708
    6.225    0.4708
    6.360    0.5350
    6.495    0.4066
    6.630    0.5350
    6.765    0.5243
    6.900    0.6314
    7.035    0.4922
    7.170    0.4387
    7.305    0.6314
    7.440    0.4815
    7.575    0.4387
    7.710    0.5136
    7.845    0.4280
    7.980    0.5243
    8.115    0.4708
    8.250    0.5243
    8.385    0.4922
    8.520    0.4173
    8.655    0.3745
    8.790    0.6421
    8.925    0.3852
    9.060    0.4708
    9.195    0.4280
    9.330    0.4815
    9.465    0.4815
    9.600    0.4387
    9.735    0.5136
    9.870    0.4815
   10.005    0.5136
   10.140    0.4387
   10.275    0.3745
   10.410    0.5350
   10.545    0.5243
   10.680    0.4280
   10.815    0.6100
   10.950    0.5136
   11.085    0.4173
   11.220    0.5029
   11.355    0.4173
   11.490    0.5886
   11.625    0.5243
   11.760    0.4387
   11.895    0.5350
   12.030    0.6742
   12.165    0.5993
   12.300    0.5457
   12.435    0.3638
   12.570    0.4387
   12.705    0.4280
   12.840    0.4708
   12.975    0.3531
   13.110    0.4387
   13.245    0.3852
   13.380    0.4173
   13.515    0.4601
   13.650    0.7063
   13.785    0.4280
   13.920    0.4173
   14.055    0.4815
   14.190    0.3210
   14.325    0.4066
   14.460    0.3852
   14.595    0.3745
   14.730    0.4494
   14.865    0.3317
   15.000    0.3638
   15.135    0.4173
   15.270    0.4601
   15.405    0.3959
   15.540    0.4922
   15.675    0.3959
   15.810    0.5136
   15.945    0.6100
   16.080    0.3852
   16.215    0.4173
   16.350    0.3317
   16.485    0.4708
   16.620    0.4601
   16.755    0.4173
   16.890    0.4494
   17.025    0.3103
   17.160    0.4173
   17.295    0.3959
   17.430    0.3745
   17.565    0.3317
   17.700    0.4173
   17.835    0.4066
   17.970    0.4494
   18.105    0.3959
   18.240    0.4280
   18.375    0.2675
   18.510    0.3852
   18.645    0.3852
   18.780    0.3745
   18.915    0.3959
   19.050    0.3103
   19.185    0.4066
   19.320    0.4387
   19.455    0.4387
   19.590    0.4708
   19.725    0.3852
   19.860    0.4815
   19.995    0.4280
   20.130    0.3959
   20.265    0.4494
   20.400    0.3531
   20.535    0.3959
   20.670    0.4815
   20.805    0.5029
   20.940    0.3210
   21.075    0.4601
   21.210    0.4066
   21.345    0.3531
   21.480    0.4280
   21.615    0.4708
   21.750    0.3852
   21.885    0.3852
   22.020    0.4387
   22.155    0.4601
   22.290    0.4387
   22.425    0.4494
   22.560    0.4280
   22.695    0.3745
   22.830    0.4601
   22.965    0.5136
   23.100    0.4066
   23.235    0.3424
   23.370    0.4066
   23.505    0.5029
   23.640    0.3959
   23.775    0.3959
   23.910    0.4066
   24.045    0.3424
   24.180    0.3531
   24.315    0.4494
   24.450    0.4708
   24.585    0.3959
   24.720    0.4387
   24.855    0.3531
   24.990    0.4922
   25.125    0.3959
   25.260    0.4494
   25.395    0.5029
   25.530    0.5243
   25.665    0.4708
   25.800    0.5243
   25.935    0.3959
   26.070    0.4280
   26.205    0.4066
   26.340    0.4922
   26.475    0.4173
   26.610    0.5350
   26.745    0.4494
   26.880    0.4173
   27.015    0.5243
   27.150    0.3959
   27.285    0.4601
   27.420    0.4922
   27.555    0.3745
   27.690    0.5136
   27.825    0.5029
   27.960    0.4066
   28.095    0.5671
   28.230    0.4280
   28.365    0.3638
   28.500    0.4922
   28.635    0.4387
   28.770    0.4815
   28.905    0.4280
   29.040    0.4494
   29.175    0.4815
   29.310    0.4387
   29.445    0.4494
   29.580    0.4066
   29.715    0.3745
   29.850    0.4066
   29.985    0.5029
   30.120    0.4815
   30.255    0.4494
   30.390    0.4601
   30.525    0.4601
   30.660    0.3638
   30.795    0.3959
   30.930    0.3852
   31.065    0.3745
   31.200    0.2782
   31.335    0.4922
   31.470    0.4280
   31.605    0.3210
   31.740    0.4066
   31.875    0.5029
   32.010    0.3424
   32.145    0.4173
   32.280    0.4601
   32.415    0.2996
   32.550    0.3531
   32.685    0.4494
   32.820    0.3531
   32.955    0.3424
   33.090    0.3424
   33.225    0.3531
   33.360    0.4494
   33.495    0.3531
   33.630    0.3638
   33.765    0.2675
   33.900    0.4708
   34.035    0.4066
   34.170    0.3852
   34.305    0.4066
   34.440    0.2889
   34.575    0.2568
   34.710    0.3852
   34.845    0.4280
   34.980    0.3103
   35.115    0.2568
   35.250    0.2568
   35.385    0.2568
   35.520    0.3424
   35.655    0.3745
   35.790    0.3852
   35.925    0.3424
   36.060    0.2033
   36.195    0.3424
   36.330    0.2568
   36.465    0.3210
   36.600    0.2996
   36.735    0.2140
   36.870    0.2996
   37.005    0.3852
   37.140    0.2889
   37.275    0.2782
   37.410    0.2675
   37.545    0.2568
   37.680    0.1926
   37.815    0.2354
   37.950    0.3210
   38.085    0.2354
   38.220    0.2354
   38.355    0.2568
   38.490    0.3103
   38.625    0.2354
   38.760    0.2461
   38.895    0.2461
   39.030    0.2140
   39.165    0.3424
   39.300    0.2889
   39.435    0.2461
   39.570    0.2461
   39.705    0.2354
   39.840    0.2461
   39.975    0.2782
   39.990    0.2461