File: data/PXRD/PXRD_KE-229-2_Co-Ka1_film-3mm_5s-deg.xyd
    1.500    6.5383
    1.635    5.8534
    1.770    4.9331
    1.905    5.1150
    2.040    4.4730
    2.175    3.9058
    2.310    3.5848
    2.445    3.7453
    2.580    3.1782
    2.715    3.1033
    2.850    2.8357
    2.985    2.7287
    3.120    2.7929
    3.255    2.5789
    3.390    2.5254
    3.525    2.3542
    3.660    2.4505
    3.795    2.3435
    3.930    2.4612
    4.065    3.1889
    4.200    5.5538
    4.335   11.4179
    4.470   34.4783
    4.605    2.2579
    4.740    1.8192
    4.875    1.9048
    5.010    1.8085
    5.145    1.7657
    5.280    1.7014
    5.415    1.8085
    5.550    1.7014
    5.685    1.8620
    5.820    1.7764
    5.955    1.6051
    6.090    2.0546
    6.225    2.9428
    6.360    6.5276
    6.495    2.1081
    6.630    1.9690
    6.765    1.8192
    6.900    1.8085
    7.035    1.6693
    7.170    1.4339
    7.305    1.5623
    7.440    1.4339
    7.575    1.4553
    7.710    1.4232
    7.845    3.3708
    7.980    1.2092
    8.115    1.3055
    8.250    1.2306
    8.385    1.2306
    8.520    1.0808
    8.655    1.1129
    8.790    1.2841
    8.925    1.2734
    9.060    3.4457
    9.195    0.8989
    9.330    1.0273
    9.465    0.8989
    9.600    1.0059
    9.735    1.0701
    9.870    0.9096
   10.005    0.8133
   10.140    1.0487
   10.275    0.8882
   10.410    0.8240
   10.545    0.8347
   10.680    0.7812
   10.815    0.9845
   10.950    1.1450
   11.085    4.3660
   11.220    0.9096
   11.355    1.0166
   11.490    0.7063
   11.625    0.7812
   11.760    0.6849
   11.895    1.0380
   12.030    2.4398
   12.165    0.8347
   12.300    0.8668
   12.435    0.8561
   12.570    0.9952
   12.705    1.2092
   12.840    2.8357
   12.975    0.8561
   13.110    0.9096
   13.245    0.9310
   13.380    0.7919
   13.515    1.1129
   13.650    2.6645
   13.785    0.8775
   13.920    0.7705
   14.055    0.8347
   14.190    0.9845
   14.325    0.9310
   14.460    0.8133
   14.595    0.8775
   14.730    0.8026
   14.865    0.8133
   15.000    1.0380
   15.135    0.9952
   15.270    0.7705
   15.405    0.8775
   15.540    0.8026
   15.675    0.9417
   15.810    0.6635
   15.945    0.8347
   16.080    0.8668
   16.215    0.8668
   16.350    1.0166
   16.485    0.8026
   16.620    0.9524
   16.755    0.8561
   16.890    0.8668
   17.025    0.9417
   17.160    0.7705
   17.295    0.7812
   17.430    0.7812
   17.565    0.8240
   17.700    0.8454
   17.835    0.8133
   17.970    0.8775
   18.105    0.6956
   18.240    0.9310
   18.375    0.8989
   18.510    0.7491
   18.645    0.8240
   18.780    1.1557
   18.915    0.7170
   19.050    0.7277
   19.185    0.8240
   19.320    1.1129
   19.455    0.7384
   19.590    0.7170
   19.725    0.8454
   19.860    2.2472
   19.995    0.7063
   20.130    0.7384
   20.265    0.7063
   20.400    1.2413
   20.535    0.9310
   20.670    0.7919
   20.805    0.7063
   20.940    1.0380
   21.075    0.7919
   21.210    0.7812
   21.345    0.9203
   21.480    0.8133
   21.615    0.6742
   21.750    0.8133
   21.885    0.8668
   22.020    0.5993
   22.155    0.8454
   22.290    0.6314
   22.425    0.7919
   22.560    0.7812
   22.695    0.7491
   22.830    1.1129
   22.965    0.7170
   23.100    0.6849
   23.235    0.6421
   23.370    0.8026
   23.505    0.7491
   23.640    0.6742
   23.775    0.9952
   23.910    0.6421
   24.045    0.6421
   24.180    0.8240
   24.315    0.6742
   24.450    0.8133
   24.585    0.5993
   24.720    0.6956
   24.855    0.5993
   24.990    0.6956
   25.125    0.6528
   25.260    0.6100
   25.395    0.6314
   25.530    0.7705
   25.665    0.5564
   25.800    0.7384
   25.935    0.6635
   26.070    0.6956
   26.205    0.5886
   26.340    0.8668
   26.475    0.6100
   26.610    0.6528
   26.745    0.5993
   26.880    0.6742
   27.015    0.5671
   27.150    0.5886
   27.285    0.6742
   27.420    0.5457
   27.555    0.5564
   27.690    0.4601
   27.825    0.6635
   27.960    0.6742
   28.095    0.4708
   28.230    0.5136
   28.365    0.5564
   28.500    0.5136
   28.635    0.7491
   28.770    0.4708
   28.905    0.5029
   29.040    0.5457
   29.175    0.4387
   29.310    0.6314
   29.445    0.5778
   29.580    0.4601
   29.715    0.5350
   29.850    0.5564
   29.985    0.3317
   30.120    1.3804
   30.255    0.5243
   30.390    0.5350
   30.525    0.4280
   30.660    0.4815
   30.795    0.6421
   30.930    0.4280
   31.065    0.4173
   31.200    0.6207
   31.335    0.5243
   31.470    0.5671
   31.605    0.5564
   31.740    0.3745
   31.875    0.5778
   32.010    0.4601
   32.145    0.5886
   32.280    0.3745
   32.415    0.4494
   32.550    0.5350
   32.685    0.4494
   32.820    0.5993
   32.955    0.4815
   33.090    0.5564
   33.225    0.5671
   33.360    0.4387
   33.495    0.5243
   33.630    0.4066
   33.765    0.5564
   33.900    0.5243
   34.035    0.4066
   34.170    0.6421
   34.305    0.2889
   34.440    0.4708
   34.575    0.4708
   34.710    0.4708
   34.845    0.3531
   34.980    0.3959
   35.115    0.4922
   35.250    0.4601
   35.385    0.3424
   35.520    0.3638
   35.655    0.3317
   35.790    0.2996
   35.925    0.3424
   36.060    0.4387
   36.195    0.2354
   36.330    0.3210
   36.465    0.2675
   36.600    0.4066
   36.735    0.3745
   36.870    0.3317
   37.005    0.2675
   37.140    0.3959
   37.275    0.2782
   37.410    0.2782
   37.545    0.3745
   37.680    0.3531
   37.815    0.4066
   37.950    0.3424
   38.085    0.3638
   38.220    0.3210
   38.355    0.3531
   38.490    0.2996
   38.625    0.2889
   38.760    0.2461
   38.895    0.3531
   39.030    0.3424
   39.165    0.2782
   39.300    0.3103
   39.435    0.2461
   39.570    0.4280
   39.705    0.2996
   39.840    0.3424
   39.975    0.2461
   39.990    0.2461