File: data/PXRD/PXRD_KE-269disp_Cu-Ka1_capillary-1mm_3s-deg.xyd
    1.500    5.5292
    1.635    5.0202
    1.770    5.3537
    1.905    4.7042
    2.040    5.0553
    2.175    4.8973
    2.310    4.7744
    2.445    4.7920
    2.580    5.2659
    2.715    4.6516
    2.850    4.6165
    2.985    5.0377
    3.120    4.4585
    3.255    4.6165
    3.390    4.5463
    3.525    4.3707
    3.660    4.6340
    3.795    4.7042
    3.930    4.6691
    4.065    4.4936
    4.200    4.7744
    4.335    4.3181
    4.470    4.9500
    4.605    4.7393
    4.740    5.0026
    4.875    4.7920
    5.010    4.7744
    5.145    4.7393
    5.280    5.1080
    5.415    4.6691
    5.550    4.1425
    5.685    4.4409
    5.820    4.8271
    5.955    4.3356
    6.090    5.0202
    6.225    4.5287
    6.360    5.0026
    6.495    4.6165
    6.630    4.4234
    6.765    4.7393
    6.900    4.7218
    7.035    4.4058
    7.170    5.2484
    7.305    4.4760
    7.440    5.0904
    7.575    4.9851
    7.710    4.8798
    7.845    4.4936
    7.980    5.5117
    8.115    6.4771
    8.250    4.3883
    8.385    4.9324
    8.520    5.1606
    8.655    5.5468
    8.790    4.6867
    8.925    5.2133
    9.060    5.1431
    9.195    4.6165
    9.330    4.7569
    9.465    5.3712
    9.600    5.4590
    9.735    5.2659
    9.870    5.5292
   10.005    5.6872
   10.140    5.8452
   10.275    6.3191
   10.410    5.8101
   10.545    5.8627
   10.680    7.4425
   10.815    6.1260
   10.950    5.7925
   11.085    6.4946
   11.220    5.6872
   11.355    5.6521
   11.490    6.3016
   11.625    5.8276
   11.760    6.0032
   11.895    5.5468
   12.030    6.5649
   12.165    6.5649
   12.300    6.0558
   12.435    6.4946
   12.570    7.1792
   12.705    6.7579
   12.840    6.7404
   12.975    7.0915
   13.110    7.0915
   13.245    7.9340
   13.380    7.8638
   13.515    6.8457
   13.650    7.8462
   13.785    8.4606
   13.920    8.3904
   14.055    7.8287
   14.190    8.2500
   14.325    9.2505
   14.460    8.8994
   14.595    9.2505
   14.730    9.6367
   14.865    9.7420
   15.000   10.3388
   15.135   10.2335
   15.270   10.6723
   15.405   11.9186
   15.540   11.3569
   15.675   11.8659
   15.810   12.5680
   15.945   12.7962
   16.080   13.8318
   16.215   14.5340
   16.350   14.7446
   16.485   14.5164
   16.620   15.7627
   16.755   15.5345
   16.890   16.9563
   17.025   16.4473
   17.160   17.9393
   17.295   17.1318
   17.430   18.5185
   17.565   18.3781
   17.700   19.7648
   17.835   20.9057
   17.970   20.1861
   18.105   20.6775
   18.240   20.4494
   18.375   22.5206
   18.510   23.5738
   18.645   22.4680
   18.780   22.5206
   18.915   22.2047
   19.050   23.2052
   19.185   21.5025
   19.320   22.8717
   19.455   22.4153
   19.590   23.5212
   19.725   22.2222
   19.860   21.1515
   19.995   21.6254
   20.130   21.2919
   20.265   21.1690
   20.400   21.4499
   20.535   20.8004
   20.670   19.8526
   20.805   20.0632
   20.940   19.2733
   21.075   17.8164
   21.210   17.6409
   21.345   18.4132
   21.480   18.9925
   21.615   17.5180
   21.750   17.0090
   21.885   16.4121
   22.020   15.8504
   22.155   15.1132
   22.290   14.7446
   22.425   14.8324
   22.560   15.3765
   22.695   14.4813
   22.830   14.2356
   22.965   13.7967
   23.100   12.8313
   23.235   12.6733
   23.370   12.8664
   23.505   12.1819
   23.640   11.6728
   23.775   12.9366
   23.910   11.5850
   24.045   10.8829
   24.180   10.7952
   24.315   11.1813
   24.450   10.9707
   24.585   10.7776
   24.720    9.9351
   24.855    9.8999
   24.990    9.6015
   25.125   10.4441
   25.260   11.0233
   25.395   10.0053
   25.530    9.8473
   25.665    9.5313
   25.800    9.2329
   25.935    9.1276
   26.070    9.1978
   26.205    8.8117
   26.340    8.7941
   26.475    9.0574
   26.610    8.7941
   26.745    9.8824
   26.880   10.9356
   27.015    8.3026
   27.150    8.6361
   27.285    7.8638
   27.420    7.5829
   27.555    8.1446
   27.690    7.7585
   27.825    8.6010
   27.960    7.8111
   28.095    7.5654
   28.230    7.4250
   28.365    7.0388
   28.500    7.2494
   28.635    7.0915
   28.770    7.6180
   28.905    7.2143
   29.040    7.4776
   29.175    7.4425
   29.310    7.0388
   29.445    6.8984
   29.580    6.9510
   29.715    6.6175
   29.850    6.9335
   29.985    6.4946
   30.120    6.8457
   30.255    6.5824
   30.390    6.1436
   30.525    6.4420
   30.660    5.9681
   30.795    6.4946
   30.930    6.9686
   31.065    6.3016
   31.200    6.6877
   31.335    6.5298
   31.470    6.3893
   31.605    6.5473
   31.740    6.5473
   31.875    6.5473
   32.010    6.1611
   32.145    6.3016
   32.280    5.8978
   32.415    5.7399
   32.550    5.6697
   32.685    5.6521
   32.820    6.0558
   32.955    5.8452
   33.090    5.6697
   33.225    5.6697
   33.360    5.9681
   33.495    6.0558
   33.630    5.8803
   33.765    5.8101
   33.900    5.9329
   34.035    5.2308
   34.170    5.7925
   34.305    5.5468
   34.440    5.1606
   34.575    5.5468
   34.710    5.6521
   34.845    5.8101
   34.980    5.7048
   35.115    5.8276
   35.250    5.4415
   35.385    5.2835
   35.520    5.5994
   35.655    5.2659
   35.790    4.8095
   35.925    5.3712
   36.060    5.0904
   36.195    5.1255
   36.330    4.9500
   36.465    5.4064
   36.600    5.1957
   36.735    5.0026
   36.870    4.5814
   37.005    5.0728
   37.140    4.8798
   37.275    4.5111
   37.410    5.0377
   37.545    4.7920
   37.680    5.0728
   37.815    4.8973
   37.950    5.1255
   38.085    4.4409
   38.220    4.8447
   38.355    4.7569
   38.490    4.7744
   38.625    4.9324
   38.760    4.3883
   38.895    4.9324
   39.030    4.8798
   39.165    4.8798
   39.300    4.5814
   39.435    4.6867
   39.570    4.9324
   39.705    4.9675
   39.840    4.5287
   39.975    5.0904
   39.990    5.0728