File: data/PXRD/PXRD_KE-305-3F_Cu-Ka1_capillary-1mm_3s-deg.xyd
    1.500   15.3941
    1.635   13.3579
    1.770   13.4106
    1.905   12.0765
    2.040   11.6728
    2.175   11.4271
    2.310   11.2691
    2.445   10.6196
    2.580   10.1457
    2.715   12.3925
    2.850   12.4627
    2.985   13.9547
    3.120   16.5526
    3.255   21.0637
    3.390   25.3993
    3.525   37.1775
    3.660   55.3449
    3.795  121.3095
    3.930   21.6430
    4.065    7.1441
    4.200    6.8106
    4.335    6.0032
    4.470    6.7404
    4.605    6.9510
    4.740    7.4250
    4.875    8.1095
    5.010    9.4787
    5.145   13.3755
    5.280   20.8004
    5.415   41.9344
    5.550   12.3223
    5.685    5.7750
    5.820    4.9324
    5.955    4.8095
    6.090    5.5994
    6.225    6.0207
    6.360    6.9335
    6.495    8.2500
    6.630   12.6207
    6.765   11.9361
    6.900    5.0026
    7.035    5.5117
    7.170    4.7042
    7.305    5.5994
    7.440    5.8803
    7.575    7.3021
    7.710   11.0936
    7.845    6.7755
    7.980    5.3361
    8.115    4.8271
    8.250    4.9500
    8.385    4.8973
    8.520    4.8798
    8.655    6.1436
    8.790    5.3010
    8.925    4.8973
    9.060    5.2308
    9.195    6.2489
    9.330    8.2149
    9.465   15.8329
    9.600   10.4265
    9.735    4.9149
    9.870    4.5463
   10.005    5.2659
   10.140    6.5473
   10.275   11.8659
   10.410    5.1255
   10.545    4.7744
   10.680    4.8622
   10.815    5.3712
   10.950    7.0037
   11.085    6.0558
   11.220    4.7920
   11.355    4.7218
   11.490    5.1431
   11.625    7.9340
   11.760    6.6526
   11.895    4.4058
   12.030    4.4585
   12.165    4.5814
   12.300    5.5117
   12.435    4.6516
   12.570    4.2478
   12.705    5.0553
   12.840    6.0383
   12.975    7.9691
   13.110    4.3707
   13.245    4.4234
   13.380    4.7042
   13.515    5.8627
   13.650    4.8447
   13.785    4.9675
   13.920    4.6340
   14.055    7.7409
   14.190    5.1606
   14.325    4.1074
   14.460    4.2830
   14.595    4.1601
   14.730    4.1601
   14.865    3.8441
   15.000    4.4234
   15.135    4.5814
   15.270    4.1425
   15.405    3.8617
   15.540    4.1601
   15.675    4.0899
   15.810    4.3707
   15.945    4.4409
   16.080    4.9675
   16.215    4.0899
   16.350    4.2127
   16.485    4.4409
   16.620    5.2835
   16.755    3.7213
   16.890    4.3883
   17.025    7.1441
   17.160    4.6691
   17.295    4.1601
   17.430    4.8798
   17.565    4.7218
   17.700    4.1601
   17.835    4.2127
   17.970    4.5989
   18.105    4.2127
   18.240    3.8090
   18.375    4.6516
   18.510    4.0899
   18.645    4.4585
   18.780    5.0202
   18.915    3.7564
   19.050    4.0548
   19.185    4.1952
   19.320    4.1425
   19.455    4.6165
   19.590    5.2133
   19.725    4.3532
   19.860    4.4585
   19.995    4.7920
   20.130    4.3005
   20.265    4.4234
   20.400    6.4595
   20.535    4.3005
   20.670    4.3005
   20.805    4.1601
   20.940    4.0899
   21.075    4.2654
   21.210    4.1952
   21.345    4.1250
   21.480    4.2127
   21.615    4.4234
   21.750    4.3883
   21.885    5.2484
   22.020    4.4409
   22.155    4.6867
   22.290    4.7920
   22.425    4.5638
   22.560    6.7755
   22.695    4.8271
   22.830    5.4064
   22.965    6.0909
   23.100    4.4058
   23.235    4.9324
   23.370    4.1074
   23.505    4.5638
   23.640    4.4760
   23.775    4.3005
   23.910    5.1431
   24.045    4.4936
   24.180    4.2830
   24.315    4.6340
   24.450    4.2654
   24.585    4.4234
   24.720    4.0372
   24.855    4.2830
   24.990    4.2478
   25.125    4.4760
   25.260    4.5287
   25.395    4.1425
   25.530    4.6516
   25.665    3.9143
   25.800    5.7750
   25.935    4.3707
   26.070    4.0899
   26.205    4.1250
   26.340    4.2478
   26.475    4.5463
   26.610    3.8441
   26.745    4.3181
   26.880    3.7739
   27.015    4.8095
   27.150    4.1074
   27.285    4.2830
   27.420    4.0197
   27.555    4.1074
   27.690    3.9670
   27.825    4.1425
   27.960    4.1250
   28.095    4.1250
   28.230    4.5638
   28.365    4.1250
   28.500    4.3181
   28.635    4.0372
   28.770    3.7388
   28.905    4.0899
   29.040    3.7564
   29.175    3.9670
   29.310    4.5989
   29.445    3.8441
   29.580    3.7213
   29.715    3.8792
   29.850    4.0021
   29.985    3.6510
   30.120    3.8441
   30.255    3.8441
   30.390    4.2478
   30.525    3.2824
   30.660    4.0723
   30.795    3.7388
   30.930    3.8266
   31.065    3.5984
   31.200    3.6510
   31.335    3.7213
   31.470    3.7213
   31.605    3.5457
   31.740    3.8617
   31.875    3.7739
   32.010    3.5808
   32.145    3.1596
   32.280    3.3175
   32.415    3.2824
   32.550    3.3175
   32.685    3.4580
   32.820    3.6510
   32.955    3.5282
   33.090    3.7037
   33.225    3.2649
   33.360    3.4755
   33.495    3.3877
   33.630    3.5106
   33.765    3.3877
   33.900    3.4580
   34.035    3.4404
   34.170    2.8787
   34.305    3.0191
   34.440    2.9314
   34.575    3.3175
   34.710    2.8260
   34.845    3.2473
   34.980    2.8612
   35.115    2.9840
   35.250    2.9314
   35.385    3.1245
   35.520    3.0191
   35.655    3.0718
   35.790    3.0718
   35.925    2.8612
   36.060    3.1947
   36.195    3.3000
   36.330    2.7032
   36.465    3.2298
   36.600    3.0191
   36.735    2.7909
   36.870    2.9314
   37.005    2.7558
   37.140    3.0016
   37.275    3.0191
   37.410    2.6856
   37.545    2.9840
   37.680    3.0191
   37.815    3.2122
   37.950    2.6330
   38.085    2.7383
   38.220    2.8787
   38.355    2.9665
   38.490    2.9314
   38.625    2.9314
   38.760    2.7207
   38.895    2.7207
   39.030    2.3170
   39.165    2.3697
   39.300    2.9840
   39.435    2.4750
   39.570    3.0191
   39.705    2.8260
   39.840    2.6681
   39.975    2.7558
   39.990    2.5979