File: data/PXRD/PXRD_KE-223_Co-Ka1_capillary-1mm_5s-deg.xyd
    1.500   19.6576
    1.635   15.3344
    1.770   12.3703
    1.905    9.6843
    2.040    7.8759
    2.175    6.3456
    2.310    5.1043
    2.445    4.2483
    2.580    3.6383
    2.715    3.4029
    2.850    2.7501
    2.985    2.5896
    3.120    2.3435
    3.255    2.2044
    3.390    1.9369
    3.525    1.9155
    3.660    1.6693
    3.795    1.5516
    3.930    1.5516
    4.065    1.5623
    4.200    1.5302
    4.335    1.5088
    4.470    1.2841
    4.605    1.3055
    4.740    1.1557
    4.875    1.4125
    5.010    1.1557
    5.145    1.1236
    5.280    1.1236
    5.415    1.0915
    5.550    1.0701
    5.685    1.0273
    5.820    1.0594
    5.955    0.9952
    6.090    1.1985
    6.225    1.1022
    6.360    1.0166
    6.495    1.0166
    6.630    1.1236
    6.765    1.0915
    6.900    1.0059
    7.035    0.8133
    7.170    1.1129
    7.305    1.1022
    7.440    0.8454
    7.575    0.7812
    7.710    0.8989
    7.845    0.9310
    7.980    1.0380
    8.115    1.0594
    8.250    1.1236
    8.385    1.0594
    8.520    1.1557
    8.655    1.1771
    8.790    1.1664
    8.925    1.2948
    9.060    1.1878
    9.195    1.1878
    9.330    1.0915
    9.465    1.2092
    9.600    1.2092
    9.735    1.1129
    9.870    0.9952
   10.005    0.9417
   10.140    1.1022
   10.275    0.9310
   10.410    1.0487
   10.545    1.0594
   10.680    0.8882
   10.815    1.0166
   10.950    0.8240
   11.085    0.9203
   11.220    0.8882
   11.355    0.9310
   11.490    1.0273
   11.625    1.0808
   11.760    0.9952
   11.895    0.7812
   12.030    0.9096
   12.165    0.7598
   12.300    0.8882
   12.435    0.7705
   12.570    0.7063
   12.705    0.7919
   12.840    0.7598
   12.975    0.8561
   13.110    0.7919
   13.245    0.8133
   13.380    0.8561
   13.515    0.7384
   13.650    0.7705
   13.785    0.8561
   13.920    0.8347
   14.055    0.8026
   14.190    0.8133
   14.325    0.7491
   14.460    0.8668
   14.595    0.8347
   14.730    0.8133
   14.865    0.7812
   15.000    0.7919
   15.135    0.9524
   15.270    0.6742
   15.405    0.8347
   15.540    0.7598
   15.675    0.7812
   15.810    0.5993
   15.945    0.7919
   16.080    0.7705
   16.215    0.8026
   16.350    0.6956
   16.485    0.8240
   16.620    0.6742
   16.755    0.7170
   16.890    0.7063
   17.025    0.7063
   17.160    0.6207
   17.295    0.7277
   17.430    0.7491
   17.565    0.6956
   17.700    0.7491
   17.835    0.8561
   17.970    0.8240
   18.105    0.7170
   18.240    0.7919
   18.375    0.7063
   18.510    0.7384
   18.645    0.5993
   18.780    0.8347
   18.915    0.8347
   19.050    0.7491
   19.185    0.7598
   19.320    0.7812
   19.455    0.8882
   19.590    0.7919
   19.725    0.7598
   19.860    0.7384
   19.995    0.8026
   20.130    0.6528
   20.265    0.7919
   20.400    0.9096
   20.535    0.7170
   20.670    0.6849
   20.805    0.8454
   20.940    0.8133
   21.075    0.8133
   21.210    0.7277
   21.345    0.8026
   21.480    0.8561
   21.615    0.9952
   21.750    0.7384
   21.885    0.7170
   22.020    0.7063
   22.155    0.7277
   22.290    0.6849
   22.425    0.7491
   22.560    0.7491
   22.695    0.5350
   22.830    0.7705
   22.965    0.9310
   23.100    0.7277
   23.235    0.8347
   23.370    0.6742
   23.505    0.8668
   23.640    0.8775
   23.775    0.7063
   23.910    0.7705
   24.045    0.7598
   24.180    0.9738
   24.315    0.6742
   24.450    0.8775
   24.585    0.7919
   24.720    0.7705
   24.855    0.7812
   24.990    0.6742
   25.125    0.8454
   25.260    0.7812
   25.395    0.8668
   25.530    0.8026
   25.665    0.7384
   25.800    0.8026
   25.935    0.8347
   26.070    0.8240
   26.205    0.6528
   26.340    0.7491
   26.475    0.8133
   26.610    0.8882
   26.745    0.7063
   26.880    0.7063
   27.015    0.6207
   27.150    0.8240
   27.285    0.7812
   27.420    0.7063
   27.555    0.7598
   27.690    0.6421
   27.825    0.7705
   27.960    0.7598
   28.095    0.7384
   28.230    0.6528
   28.365    0.7919
   28.500    0.7705
   28.635    0.6314
   28.770    0.7170
   28.905    0.6100
   29.040    0.8347
   29.175    0.5886
   29.310    0.7598
   29.445    0.6635
   29.580    0.6742
   29.715    0.7063
   29.850    0.8347
   29.985    0.5564
   30.120    0.7063
   30.255    0.6635
   30.390    0.6314
   30.525    0.6100
   30.660    0.7705
   30.795    0.7384
   30.930    0.6100
   31.065    0.6421
   31.200    0.6742
   31.335    0.6100
   31.470    0.6635
   31.605    0.5671
   31.740    0.5457
   31.875    0.6314
   32.010    0.5564
   32.145    0.6100
   32.280    0.6421
   32.415    0.5350
   32.550    0.5136
   32.685    0.7170
   32.820    0.5778
   32.955    0.5136
   33.090    0.5564
   33.225    0.5457
   33.360    0.7063
   33.495    0.6207
   33.630    0.5778
   33.765    0.5886
   33.900    0.6314
   34.035    0.4815
   34.170    0.6528
   34.305    0.4066
   34.440    0.5564
   34.575    0.5993
   34.710    0.4708
   34.845    0.6528
   34.980    0.5136
   35.115    0.4922
   35.250    0.4922
   35.385    0.5778
   35.520    0.5457
   35.655    0.5778
   35.790    0.5350
   35.925    0.4922
   36.060    0.5243
   36.195    0.5243
   36.330    0.4173
   36.465    0.4601
   36.600    0.4494
   36.735    0.5993
   36.870    0.5350
   37.005    0.5993
   37.140    0.4601
   37.275    0.3745
   37.410    0.4066
   37.545    0.5350
   37.680    0.3745
   37.815    0.3317
   37.950    0.4601
   38.085    0.4387
   38.220    0.4708
   38.355    0.3210
   38.490    0.4387
   38.625    0.4815
   38.760    0.2889
   38.895    0.2996
   39.030    0.3531
   39.165    0.3638
   39.300    0.3852
   39.435    0.3852
   39.570    0.3424
   39.705    0.3210
   39.840    0.3638
   39.975    0.3852
   39.990    0.4708