File: data/PXRD/PXRD_KE-261_Co-Ka1_film-3mm_3s-deg.xyd
    1.500    3.9058
    1.635    3.5848
    1.770    3.1389
    1.905    2.9428
    2.040    2.8714
    2.175    2.7109
    2.310    2.6217
    2.445    2.2650
    2.580    2.1580
    2.715    1.9975
    2.850    2.1045
    2.985    2.0688
    3.120    1.5873
    3.255    1.6586
    3.390    1.8370
    3.525    2.0153
    3.660    2.5504
    3.795    2.8892
    3.930    5.4931
    4.065    7.6512
    4.200    3.4778
    4.335    2.8714
    4.470    2.8001
    4.605    3.6918
    4.740    3.5313
    4.875    3.0319
    5.010    2.3720
    5.145    1.9797
    5.280    1.6943
    5.415    1.5160
    5.550    1.5516
    5.685    1.4268
    5.820    1.6051
    5.955    1.7300
    6.090    1.7657
    6.225    1.6586
    6.360    2.0510
    6.495    2.2294
    6.630    1.8370
    6.765    1.6586
    6.900    1.5695
    7.035    1.6765
    7.170    1.4625
    7.305    1.3911
    7.440    1.5516
    7.575    1.3198
    7.710    1.2306
    7.845    1.1236
    7.980    1.3911
    8.115    1.8013
    8.250    1.3554
    8.385    1.3376
    8.520    1.1593
    8.655    1.0879
    8.790    1.2306
    8.925    1.1236
    9.060    1.1414
    9.195    1.0701
    9.330    1.0879
    9.465    0.8917
    9.600    1.1414
    9.735    0.9988
    9.870    0.8382
   10.005    1.1771
   10.140    0.9631
   10.275    0.8561
   10.410    0.8739
   10.545    0.9096
   10.680    0.9631
   10.815    0.8917
   10.950    0.8204
   11.085    0.9274
   11.220    0.8204
   11.355    0.9631
   11.490    0.7847
   11.625    0.7847
   11.760    0.9452
   11.895    0.8382
   12.030    0.8026
   12.165    0.9274
   12.300    0.9988
   12.435    0.9809
   12.570    0.8382
   12.705    0.8917
   12.840    0.9631
   12.975    0.7847
   13.110    0.9631
   13.245    0.8382
   13.380    0.8561
   13.515    0.9631
   13.650    0.9988
   13.785    0.8561
   13.920    0.7491
   14.055    0.7134
   14.190    0.8739
   14.325    0.8561
   14.460    0.8026
   14.595    0.8739
   14.730    0.9096
   14.865    0.8917
   15.000    0.7669
   15.135    0.8561
   15.270    1.1058
   15.405    0.9274
   15.540    0.8561
   15.675    0.8917
   15.810    0.9452
   15.945    0.8917
   16.080    0.8382
   16.215    0.9274
   16.350    0.8917
   16.485    0.6956
   16.620    0.9274
   16.755    0.7847
   16.890    0.7847
   17.025    1.0523
   17.160    1.0166
   17.295    0.8739
   17.430    0.8917
   17.565    0.7847
   17.700    0.8026
   17.835    0.7312
   17.970    0.8204
   18.105    0.7847
   18.240    0.8917
   18.375    0.7491
   18.510    0.6956
   18.645    0.9096
   18.780    0.7134
   18.915    0.8917
   19.050    0.8026
   19.185    0.8026
   19.320    0.7847
   19.455    1.0166
   19.590    0.8382
   19.725    0.6956
   19.860    0.7669
   19.995    0.7312
   20.130    0.8739
   20.265    0.8917
   20.400    0.7312
   20.535    0.8382
   20.670    0.8026
   20.805    0.9096
   20.940    0.8739
   21.075    0.8382
   21.210    0.6777
   21.345    0.6599
   21.480    0.7312
   21.615    0.7134
   21.750    0.6777
   21.885    0.8382
   22.020    0.7669
   22.155    0.5529
   22.290    0.8204
   22.425    0.6956
   22.560    0.6064
   22.695    0.8382
   22.830    0.7847
   22.965    0.7134
   23.100    0.8026
   23.235    0.6777
   23.370    0.6421
   23.505    0.7491
   23.640    0.5350
   23.775    0.7847
   23.910    0.7312
   24.045    0.7669
   24.180    0.7491
   24.315    0.7312
   24.450    0.8026
   24.585    0.4994
   24.720    0.7312
   24.855    0.7134
   24.990    0.7134
   25.125    0.7491
   25.260    0.6956
   25.395    0.6064
   25.530    0.5529
   25.665    0.6777
   25.800    0.7669
   25.935    0.4459
   26.070    0.6956
   26.205    0.6064
   26.340    0.6777
   26.475    0.4994
   26.610    0.6064
   26.745    0.6421
   26.880    0.7491
   27.015    0.6777
   27.150    0.4815
   27.285    0.4994
   27.420    0.5886
   27.555    0.4815
   27.690    0.5886
   27.825    0.6777
   27.960    0.5707
   28.095    0.5707
   28.230    0.6421
   28.365    0.6777
   28.500    0.4459
   28.635    0.4994
   28.770    0.5529
   28.905    0.5350
   29.040    0.4637
   29.175    0.4102
   29.310    0.4637
   29.445    0.5172
   29.580    0.5350
   29.715    0.5350
   29.850    0.3745
   29.985    0.5529
   30.120    0.6777
   30.255    0.3210
   30.390    0.6242
   30.525    0.5350
   30.660    0.5350
   30.795    0.5350
   30.930    0.4815
   31.065    0.4280
   31.200    0.3567
   31.335    0.3924
   31.470    0.3210
   31.605    0.4637
   31.740    0.4280
   31.875    0.4280
   32.010    0.4459
   32.145    0.4994
   32.280    0.3567
   32.415    0.4459
   32.550    0.3924
   32.685    0.3567
   32.820    0.3389
   32.955    0.3924
   33.090    0.4459
   33.225    0.4459
   33.360    0.4459
   33.495    0.4280
   33.630    0.4459
   33.765    0.3389
   33.900    0.4280
   34.035    0.4459
   34.170    0.3924
   34.305    0.3924
   34.440    0.3389
   34.575    0.3924
   34.710    0.2675
   34.845    0.4459
   34.980    0.3032
   35.115    0.2854
   35.250    0.3924
   35.385    0.3389
   35.520    0.3210
   35.655    0.3389
   35.790    0.4459
   35.925    0.2497
   36.060    0.2497
   36.195    0.3210
   36.330    0.3389
   36.465    0.2854
   36.600    0.2675
   36.735    0.2497
   36.870    0.3210
   37.005    0.2675
   37.140    0.2854
   37.275    0.3210
   37.410    0.2140
   37.545    0.2854
   37.680    0.3032
   37.815    0.2140
   37.950    0.3210
   38.085    0.3389
   38.220    0.3389
   38.355    0.2140
   38.490    0.3210
   38.625    0.1783
   38.760    0.1605
   38.895    0.3567
   39.030    0.2319
   39.165    0.3389
   39.300    0.2319
   39.435    0.3210
   39.570    0.2497
   39.705    0.2854
   39.840    0.2140
   39.975    0.2319
   39.990    0.3389