File: data/PXRD/PXRD_KE-229_Co-Ka1_capillary-1mm_5s-deg.xyd
    1.500   10.0482
    1.635    9.5131
    1.770    8.6998
    1.905    8.2504
    2.040    7.5013
    2.175    6.6239
    2.310    6.1316
    2.445    5.7036
    2.580    5.4789
    2.715    5.6608
    2.850    5.4254
    2.985    5.2755
    3.120    5.0936
    3.255    5.2970
    3.390    5.7785
    3.525    6.8700
    3.660    8.3253
    3.795   10.0910
    3.930   13.2156
    4.065   19.1118
    4.200   30.8400
    4.335   51.1182
    4.470  122.7501
    4.605    5.3719
    4.740    2.4398
    4.875    2.2365
    5.010    2.0974
    5.145    2.0653
    5.280    1.9476
    5.415    2.0760
    5.550    1.9583
    5.685    2.6645
    5.820    3.2745
    5.955    4.7191
    6.090    7.2659
    6.225   13.1621
    6.360   36.6078
    6.495    2.2579
    6.630    1.4446
    6.765    1.5088
    6.900    1.6372
    7.035    1.5409
    7.170    1.4660
    7.305    1.4874
    7.440    1.9690
    7.575    2.5147
    7.710    4.3660
    7.845   15.6126
    7.980    1.4767
    8.115    1.1343
    8.250    1.1236
    8.385    1.3162
    8.520    1.3697
    8.655    1.6693
    8.790    2.0546
    8.925    3.8416
    9.060   15.0883
    9.195    1.1664
    9.330    1.0701
    9.465    1.1236
    9.600    1.0273
    9.735    1.1557
    9.870    1.0487
   10.005    1.3804
   10.140    3.1354
   10.275    1.0487
   10.410    1.0487
   10.545    1.0808
   10.680    1.1557
   10.815    1.9369
   10.950    4.0449
   11.085   17.5281
   11.220    1.3804
   11.355    1.0059
   11.490    0.9096
   11.625    1.0380
   11.760    1.2520
   11.895    2.5254
   12.030    7.0733
   12.165    0.9738
   12.300    0.8668
   12.435    0.9417
   12.570    1.1236
   12.705    2.1616
   12.840    9.6522
   12.975    0.7705
   13.110    0.7705
   13.245    0.8882
   13.380    1.2841
   13.515    2.7501
   13.650    8.3253
   13.785    0.7063
   13.920    0.7063
   14.055    0.7598
   14.190    0.8133
   14.325    1.4981
   14.460    0.7812
   14.595    0.8133
   14.730    0.8561
   14.865    1.0380
   15.000    2.4719
   15.135    2.2686
   15.270    0.6314
   15.405    0.7491
   15.540    0.8133
   15.675    1.6693
   15.810    1.5837
   15.945    0.7170
   16.080    0.6635
   16.215    1.1236
   16.350    2.9963
   16.485    1.0808
   16.620    0.6421
   16.755    0.7598
   16.890    0.7491
   17.025    0.7170
   17.160    0.7170
   17.295    0.7170
   17.430    0.7063
   17.565    1.2092
   17.700    0.8561
   17.835    0.6635
   17.970    0.5993
   18.105    0.6742
   18.240    0.5993
   18.375    0.5350
   18.510    0.7491
   18.645    0.8026
   18.780    1.6693
   18.915    0.6421
   19.050    0.6528
   19.185    0.7919
   19.320    1.7978
   19.455    0.7491
   19.590    0.7598
   19.725    1.0487
   19.860    4.1948
   19.995    0.7919
   20.130    0.6100
   20.265    0.8133
   20.400    1.5623
   20.535    0.7705
   20.670    0.6207
   20.805    0.7598
   20.940    1.3697
   21.075    0.7598
   21.210    0.7705
   21.345    1.3269
   21.480    0.7491
   21.615    0.6528
   21.750    0.8026
   21.885    0.9738
   22.020    0.8026
   22.155    0.9524
   22.290    0.8240
   22.425    0.7384
   22.560    0.7277
   22.695    0.7384
   22.830    1.5837
   22.965    0.6100
   23.100    0.7277
   23.235    0.7063
   23.370    0.6742
   23.505    0.6956
   23.640    1.2734
   23.775    2.9320
   23.910    0.7705
   24.045    0.6421
   24.180    0.7384
   24.315    0.7705
   24.450    0.7812
   24.585    0.7491
   24.720    0.6956
   24.855    0.7277
   24.990    0.7170
   25.125    0.7170
   25.260    0.6742
   25.395    1.1450
   25.530    1.1771
   25.665    0.8240
   25.800    1.1022
   25.935    1.1878
   26.070    0.8026
   26.205    1.7657
   26.340    2.7715
   26.475    0.6421
   26.610    1.7871
   26.745    2.7822
   26.880    0.9524
   27.015    0.9203
   27.150    1.2199
   27.285    0.6956
   27.420    0.8347
   27.555    0.6849
   27.690    0.7170
   27.825    1.2734
   27.960    0.8561
   28.095    0.6635
   28.230    0.8133
   28.365    0.5993
   28.500    0.6956
   28.635    0.7812
   28.770    0.7277
   28.905    0.6100
   29.040    0.8133
   29.175    0.5564
   29.310    0.8668
   29.445    0.8347
   29.580    0.7812
   29.715    1.0701
   29.850    0.6742
   29.985    0.9631
   30.120    2.2472
   30.255    0.6100
   30.390    0.6314
   30.525    0.7170
   30.660    0.6314
   30.795    1.1557
   30.930    0.6742
   31.065    0.6100
   31.200    0.6314
   31.335    0.6528
   31.470    1.3055
   31.605    0.7812
   31.740    0.5993
   31.875    0.5136
   32.010    0.5993
   32.145    0.8989
   32.280    0.7491
   32.415    0.5243
   32.550    0.8133
   32.685    0.9738
   32.820    1.3697
   32.955    0.9096
   33.090    0.9310
   33.225    1.1664
   33.360    0.6956
   33.495    0.6207
   33.630    0.5029
   33.765    0.9524
   33.900    0.6314
   34.035    0.6635
   34.170    0.9631
   34.305    0.6742
   34.440    0.5457
   34.575    0.4815
   34.710    0.6742
   34.845    0.8347
   34.980    0.5243
   35.115    0.6100
   35.250    0.4387
   35.385    0.7812
   35.520    0.6314
   35.655    0.6207
   35.790    0.8026
   35.925    0.4708
   36.060    0.5564
   36.195    0.4494
   36.330    0.5029
   36.465    0.4815
   36.600    0.7919
   36.735    0.6314
   36.870    0.5350
   37.005    0.6207
   37.140    0.6849
   37.275    0.5457
   37.410    1.1771
   37.545    0.8133
   37.680    0.5136
   37.815    0.4815
   37.950    0.3638
   38.085    0.4387
   38.220    0.5029
   38.355    0.5350
   38.490    0.7170
   38.625    0.3852
   38.760    0.3852
   38.895    0.3959
   39.030    0.5564
   39.165    0.3852
   39.300    0.5243
   39.435    0.6635
   39.570    1.0380
   39.705    0.5886
   39.840    0.6314
   39.975    0.4601
   39.990    0.5029