File: data/PXRD/PXRD_KE-213_Co-Ka1_film-3mm_5s-deg.xyd
    1.500    3.7988
    1.635    3.4671
    1.770    3.2852
    1.905    3.3387
    2.040    2.5468
    2.175    2.8892
    2.310    2.4184
    2.445    2.0439
    2.580    2.0546
    2.715    2.2579
    2.850    1.9048
    2.985    1.9048
    3.120    1.7121
    3.255    1.8192
    3.390    2.2686
    3.525    2.2151
    3.660    3.0712
    3.795    4.0556
    3.930    6.3670
    4.065    7.8973
    4.200    3.5527
    4.335    3.0819
    4.470    3.5099
    4.605    3.5099
    4.740    3.6062
    4.875    2.9213
    5.010    2.5040
    5.145    2.0439
    5.280    1.9262
    5.415    1.7121
    5.550    1.5409
    5.685    1.7764
    5.820    1.8299
    5.955    1.7549
    6.090    1.8941
    6.225    1.9583
    6.360    2.1402
    6.495    2.1616
    6.630    1.9048
    6.765    2.0118
    6.900    1.7871
    7.035    1.7657
    7.170    1.4018
    7.305    1.7014
    7.440    1.3376
    7.575    1.3590
    7.710    1.2199
    7.845    1.3590
    7.980    1.7335
    8.115    1.5195
    8.250    1.4660
    8.385    1.1664
    8.520    1.2627
    8.655    1.1343
    8.790    1.1022
    8.925    1.1985
    9.060    1.0701
    9.195    1.1878
    9.330    1.1985
    9.465    1.1557
    9.600    0.9524
    9.735    1.0166
    9.870    1.1236
   10.005    0.8240
   10.140    0.9631
   10.275    1.0487
   10.410    0.9203
   10.545    0.9952
   10.680    0.8454
   10.815    0.7919
   10.950    1.0273
   11.085    0.9845
   11.220    0.8561
   11.355    0.8347
   11.490    0.8882
   11.625    0.9631
   11.760    0.7170
   11.895    0.9524
   12.030    1.0487
   12.165    0.8026
   12.300    0.8347
   12.435    0.9738
   12.570    1.0808
   12.705    0.9524
   12.840    0.8775
   12.975    0.9417
   13.110    0.9952
   13.245    0.9952
   13.380    1.0380
   13.515    0.9096
   13.650    0.8454
   13.785    0.9631
   13.920    0.7277
   14.055    0.9096
   14.190    0.7919
   14.325    0.9524
   14.460    1.0487
   14.595    0.8133
   14.730    0.8882
   14.865    0.8668
   15.000    0.7277
   15.135    0.7812
   15.270    0.8240
   15.405    0.8775
   15.540    0.9096
   15.675    0.8133
   15.810    0.7384
   15.945    0.7491
   16.080    0.9631
   16.215    0.8454
   16.350    1.0059
   16.485    0.9631
   16.620    1.0701
   16.755    0.9738
   16.890    1.0915
   17.025    1.0273
   17.160    0.7919
   17.295    0.9631
   17.430    0.9738
   17.565    0.8240
   17.700    1.0166
   17.835    0.7170
   17.970    0.7812
   18.105    0.8775
   18.240    0.7705
   18.375    0.7170
   18.510    0.9631
   18.645    0.9417
   18.780    0.8133
   18.915    0.9738
   19.050    0.9310
   19.185    0.6742
   19.320    0.8775
   19.455    0.8026
   19.590    0.6742
   19.725    0.8561
   19.860    0.6207
   19.995    0.8989
   20.130    0.7812
   20.265    0.7491
   20.400    0.8026
   20.535    0.7491
   20.670    0.8133
   20.805    0.8775
   20.940    0.6421
   21.075    0.6635
   21.210    0.8775
   21.345    0.8775
   21.480    0.7705
   21.615    0.8133
   21.750    0.7384
   21.885    0.8026
   22.020    0.9310
   22.155    0.7491
   22.290    0.7170
   22.425    1.0487
   22.560    0.8347
   22.695    0.8454
   22.830    0.6849
   22.965    0.7919
   23.100    0.6849
   23.235    0.8240
   23.370    0.7063
   23.505    0.6421
   23.640    0.6421
   23.775    0.6421
   23.910    0.6207
   24.045    0.7919
   24.180    0.6528
   24.315    0.7598
   24.450    0.7812
   24.585    0.7705
   24.720    0.7170
   24.855    0.7919
   24.990    0.5778
   25.125    0.7705
   25.260    0.6100
   25.395    0.6742
   25.530    0.7277
   25.665    0.7384
   25.800    0.5564
   25.935    0.5778
   26.070    0.5886
   26.205    0.7491
   26.340    0.7277
   26.475    0.7063
   26.610    0.6849
   26.745    0.5886
   26.880    0.5671
   27.015    0.5029
   27.150    0.6635
   27.285    0.5564
   27.420    0.5993
   27.555    0.5886
   27.690    0.6314
   27.825    0.4815
   27.960    0.4815
   28.095    0.6635
   28.230    0.6100
   28.365    0.7277
   28.500    0.5993
   28.635    0.4922
   28.770    0.5136
   28.905    0.6100
   29.040    0.4601
   29.175    0.5993
   29.310    0.5350
   29.445    0.4922
   29.580    0.4494
   29.715    0.4708
   29.850    0.5136
   29.985    0.4708
   30.120    0.5136
   30.255    0.5029
   30.390    0.4922
   30.525    0.4708
   30.660    0.5029
   30.795    0.5029
   30.930    0.5029
   31.065    0.4601
   31.200    0.4601
   31.335    0.5243
   31.470    0.4708
   31.605    0.3745
   31.740    0.4280
   31.875    0.4280
   32.010    0.4815
   32.145    0.3745
   32.280    0.5136
   32.415    0.5457
   32.550    0.4280
   32.685    0.4708
   32.820    0.5136
   32.955    0.4922
   33.090    0.4173
   33.225    0.4708
   33.360    0.4066
   33.495    0.3638
   33.630    0.4601
   33.765    0.5029
   33.900    0.4601
   34.035    0.3852
   34.170    0.4173
   34.305    0.3210
   34.440    0.4066
   34.575    0.3317
   34.710    0.3638
   34.845    0.3531
   34.980    0.3317
   35.115    0.3317
   35.250    0.2889
   35.385    0.3317
   35.520    0.3317
   35.655    0.3424
   35.790    0.3745
   35.925    0.3638
   36.060    0.3210
   36.195    0.3745
   36.330    0.3852
   36.465    0.3210
   36.600    0.2996
   36.735    0.2461
   36.870    0.3424
   37.005    0.2996
   37.140    0.2782
   37.275    0.3317
   37.410    0.3424
   37.545    0.2996
   37.680    0.2247
   37.815    0.3103
   37.950    0.2782
   38.085    0.3424
   38.220    0.3424
   38.355    0.2996
   38.490    0.3210
   38.625    0.2782
   38.760    0.3531
   38.895    0.3210
   39.030    0.2889
   39.165    0.2675
   39.300    0.2354
   39.435    0.2782
   39.570    0.2568
   39.705    0.1712
   39.840    0.2996
   39.975    0.2247
   39.990    0.2461