File: data/PXRD/PXRD_KE-186_Cu-Ka1_capillary-1mm_5s-deg.xyd
    1.500   27.4882
    1.635   23.3597
    1.770   18.6835
    1.905   15.3555
    2.040   13.1964
    2.175   11.6588
    2.310   10.2054
    2.445    9.6577
    2.580    8.7414
    2.715    8.4044
    2.850    8.0358
    2.985    8.4044
    3.120    9.0469
    3.255   11.2796
    3.390   16.7035
    3.525   27.6777
    3.660   51.1954
    3.795  116.3770
    3.930  166.6877
    4.065    8.5097
    4.200    6.0874
    4.335    5.8873
    4.470    5.2238
    4.605    5.0132
    4.740    5.0342
    4.875    5.3712
    5.010    5.4976
    5.145    5.8662
    5.280    8.2359
    5.415   17.1143
    5.550   26.9194
    5.685    4.8236
    5.820    4.2970
    5.955    4.5076
    6.090    4.4550
    6.225    4.2233
    6.360    4.6130
    6.495    4.0864
    6.630    4.7604
    6.765    5.7083
    6.900    4.4339
    7.035    4.2127
    7.170    4.4234
    7.305    4.2127
    7.440    4.2865
    7.575    5.1817
    7.710    7.6461
    7.845   13.2596
    7.980    4.4760
    8.115    4.3707
    8.250    4.4550
    8.385    4.2549
    8.520    4.6656
    8.655    4.9289
    8.790    5.1817
    8.925    4.2865
    9.060    4.3391
    9.195    4.4655
    9.330    4.6656
    9.465    7.0248
    9.600   15.0922
    9.735    4.4760
    9.870    4.6445
   10.005    4.4234
   10.140    4.4760
   10.275    6.1506
   10.410    6.1085
   10.545    4.6340
   10.680    4.3813
   10.815    4.4339
   10.950    5.3397
   11.085    9.5629
   11.220    4.4339
   11.355    4.2970
   11.490    4.1074
   11.625    4.8973
   11.760    9.2364
   11.895    4.3497
   12.030    4.0548
   12.165    4.0337
   12.300    4.3813
   12.435    4.6024
   12.570    3.8441
   12.705    3.7493
   12.840    4.0232
   12.975    7.7093
   13.110    4.1074
   13.245    4.1180
   13.380    3.7177
   13.515    4.8236
   13.650    4.3813
   13.785    3.8336
   13.920    3.8547
   14.055    4.8341
   14.190    5.0237
   14.325    3.7704
   14.460    3.7493
   14.595    3.3702
   14.730    4.0126
   14.865    3.7388
   15.000    3.7915
   15.135    4.3918
   15.270    4.1074
   15.405    3.8968
   15.540    3.7704
   15.675    3.6756
   15.810    4.0337
   15.945    4.0653
   16.080    4.0442
   16.215    4.4866
   16.350    3.7388
   16.485    3.8968
   16.620    5.0553
   16.755    3.8757
   16.890    3.5071
   17.025    4.7920
   17.160    5.1922
   17.295    3.7388
   17.430    3.9179
   17.565    4.3602
   17.700    3.8441
   17.835    3.8336
   17.970    4.5708
   18.105    3.6651
   18.240    3.8547
   18.375    4.2338
   18.510    4.0864
   18.645    3.7177
   18.780    3.8441
   18.915    3.7809
   19.050    3.9810
   19.185    4.0232
   19.320    3.6440
   19.455    3.4650
   19.590    4.4550
   19.725    4.6024
   19.860    3.6546
   19.995    3.7493
   20.130    3.5071
   20.265    4.1706
   20.400    5.5292
   20.535    4.3075
   20.670    4.2233
   20.805    3.7809
   20.940    4.0337
   21.075    3.6862
   21.210    3.6756
   21.345    3.8968
   21.480    3.9600
   21.615    4.0442
   21.750    3.8336
   21.885    4.8131
   22.020    4.2970
   22.155    3.9600
   22.290    4.4760
   22.425    3.9389
   22.560    5.1185
   22.695    5.2343
   22.830    4.3286
   22.965    7.0774
   23.100    4.3602
   23.235    4.5392
   23.370    4.4023
   23.505    4.2022
   23.640    3.7704
   23.775    4.0337
   23.910    4.5708
   24.045    4.1706
   24.180    3.8547
   24.315    4.1496
   24.450    4.0337
   24.585    4.1706
   24.720    3.7283
   24.855    4.0442
   24.990    4.2338
   25.125    3.8020
   25.260    4.0758
   25.395    3.7809
   25.530    3.9179
   25.665    3.9389
   25.800    4.4128
   25.935    4.9289
   26.070    3.7704
   26.205    3.9179
   26.340    3.4966
   26.475    4.2443
   26.610    4.0969
   26.745    3.9073
   26.880    3.8757
   27.015    4.1180
   27.150    4.2443
   27.285    3.6440
   27.420    3.7177
   27.555    3.8863
   27.690    4.0442
   27.825    3.5176
   27.960    4.0969
   28.095    3.4860
   28.230    4.3707
   28.365    4.0126
   28.500    4.2338
   28.635    3.8968
   28.770    3.6967
   28.905    3.4334
   29.040    3.7177
   29.175    3.2859
   29.310    4.1496
   29.445    3.6756
   29.580    3.6967
   29.715    3.7177
   29.850    3.6756
   29.985    3.6019
   30.120    3.6546
   30.255    3.3491
   30.390    3.3913
   30.525    3.9705
   30.660    4.1601
   30.795    3.7704
   30.930    3.5703
   31.065    3.2649
   31.200    3.2754
   31.335    3.3386
   31.470    3.5598
   31.605    3.5387
   31.740    3.5703
   31.875    3.2438
   32.010    3.4755
   32.145    3.4544
   32.280    3.3070
   32.415    3.2333
   32.550    3.4123
   32.685    3.4650
   32.820    3.2649
   32.955    3.2438
   33.090    3.5071
   33.225    3.2438
   33.360    3.1174
   33.495    3.2859
   33.630    3.5703
   33.765    3.2438
   33.900    3.3281
   34.035    3.6019
   34.170    3.4860
   34.305    3.2859
   34.440    3.2543
   34.575    2.9805
   34.710    3.0858
   34.845    3.2543
   34.980    3.2543
   35.115    3.2017
   35.250    3.1806
   35.385    3.1280
   35.520    3.0226
   35.655    2.9279
   35.790    3.4650
   35.925    2.9384
   36.060    3.1280
   36.195    3.3702
   36.330    3.4650
   36.465    3.0226
   36.600    3.3175
   36.735    3.3597
   36.870    3.0753
   37.005    3.1490
   37.140    3.4334
   37.275    3.1385
   37.410    3.0753
   37.545    3.1912
   37.680    3.0437
   37.815    2.9805
   37.950    3.1912
   38.085    3.0753
   38.220    3.0648
   38.355    2.9700
   38.490    3.1596
   38.625    2.9279
   38.760    2.9595
   38.895    3.3070
   39.030    2.9173
   39.165    3.1280
   39.300    3.0437
   39.435    3.1912
   39.570    3.1385
   39.705    3.1385
   39.840    2.8120
   39.975    3.0121
   39.990    2.9700