File: data/PXRD/PXRD_KE-287_Co-Ka1_film-3mm_60s-deg.xyd
    1.500    3.1068
    1.635    2.7225
    1.770    2.3346
    1.905    2.1759
    2.040    2.0055
    2.175    1.9279
    2.310    1.7719
    2.445    1.6426
    2.580    1.6524
    2.715    1.5998
    2.850    1.5186
    2.985    1.4839
    3.120    1.4633
    3.255    1.4330
    3.390    1.3769
    3.525    1.3510
    3.660    1.3287
    3.795    1.3153
    3.930    1.3305
    4.065    1.3492
    4.200    1.3590
    4.335    1.4714
    4.470    1.7407
    4.605    1.3269
    4.740    1.3465
    4.875    1.3653
    5.010    1.3724
    5.145    1.3296
    5.280    1.3715
    5.415    1.3287
    5.550    1.3367
    5.685    1.3519
    5.820    1.4812
    5.955    1.5213
    6.090    1.6845
    6.225    1.7496
    6.360    1.9199
    6.495    1.8441
    6.630    1.8138
    6.765    1.6328
    6.900    1.5106
    7.035    1.4223
    7.170    1.3795
    7.305    1.3742
    7.440    1.3403
    7.575    1.3135
    7.710    1.2975
    7.845    1.5026
    7.980    1.1539
    8.115    1.1602
    8.250    1.1379
    8.385    1.0719
    8.520    1.0237
    8.655    1.0068
    8.790    1.0246
    8.925    0.9515
    9.060    1.0523
    9.195    0.9649
    9.330    0.9461
    9.465    0.9283
    9.600    0.9140
    9.735    0.8748
    9.870    0.8775
   10.005    0.8819
   10.140    0.9051
   10.275    0.8329
   10.410    0.8391
   10.545    0.8356
   10.680    0.8356
   10.815    0.8400
   10.950    0.8748
   11.085    1.0389
   11.220    0.8311
   11.355    0.8570
   11.490    0.8195
   11.625    0.8177
   11.760    0.8026
   11.895    0.8855
   12.030    1.2039
   12.165    0.8409
   12.300    0.8258
   12.435    0.8694
   12.570    0.8694
   12.705    0.8953
   12.840    0.9952
   12.975    0.8891
   13.110    0.9024
   13.245    0.8249
   13.380    0.8686
   13.515    0.8561
   13.650    1.1744
   13.785    0.8240
   13.920    0.7856
   14.055    0.8079
   14.190    0.8249
   14.325    0.8204
   14.460    0.8142
   14.595    0.8159
   14.730    0.7892
   14.865    0.7803
   15.000    0.8026
   15.135    0.8623
   15.270    0.7562
   15.405    0.8008
   15.540    0.7705
   15.675    0.7919
   15.810    0.8204
   15.945    0.7749
   16.080    0.7928
   16.215    0.8097
   16.350    0.7767
   16.485    0.8275
   16.620    0.8204
   16.755    0.8632
   16.890    0.8819
   17.025    0.8748
   17.160    0.8320
   17.295    0.7901
   17.430    0.7838
   17.565    0.7589
   17.700    0.7642
   17.835    0.7615
   17.970    0.7375
   18.105    0.7232
   18.240    0.7526
   18.375    0.7375
   18.510    0.7624
   18.645    0.7794
   18.780    0.7821
   18.915    0.7526
   19.050    0.7517
   19.185    0.7678
   19.320    0.7874
   19.455    0.7758
   19.590    0.7294
   19.725    0.7080
   19.860    0.8088
   19.995    0.7517
   20.130    0.7580
   20.265    0.7214
   20.400    0.7500
   20.535    0.7437
   20.670    0.7562
   20.805    0.6982
   20.940    0.7607
   21.075    0.7000
   21.210    0.7089
   21.345    0.7500
   21.480    0.7348
   21.615    0.7250
   21.750    0.7731
   21.885    0.7214
   22.020    0.7170
   22.155    0.8962
   22.290    0.6965
   22.425    0.7268
   22.560    0.7446
   22.695    0.7161
   22.830    0.6973
   22.965    0.6733
   23.100    0.6590
   23.235    0.7375
   23.370    0.6840
   23.505    0.6278
   23.640    0.6804
   23.775    0.7669
   23.910    0.6617
   24.045    0.6536
   24.180    0.6314
   24.315    0.6831
   24.450    0.6403
   24.585    0.6724
   24.720    0.6198
   24.855    0.6536
   24.990    0.6287
   25.125    0.6635
   25.260    0.6831
   25.395    0.6224
   25.530    0.6991
   25.665    0.6492
   25.800    0.6055
   25.935    0.6750
   26.070    0.6242
   26.205    0.6260
   26.340    0.8293
   26.475    0.6322
   26.610    0.5859
   26.745    0.7589
   26.880    0.6010
   27.015    0.6456
   27.150    0.6626
   27.285    0.5689
   27.420    0.5725
   27.555    0.5671
   27.690    0.5761
   27.825    0.5734
   27.960    0.5957
   28.095    0.5743
   28.230    0.5671
   28.365    0.5466
   28.500    0.5395
   28.635    0.5636
   28.770    0.5582
   28.905    0.5377
   29.040    0.5618
   29.175    0.5261
   29.310    0.5270
   29.445    0.5573
   29.580    0.5359
   29.715    0.5181
   29.850    0.5422
   29.985    0.5101
   30.120    0.5698
   30.255    0.5306
   30.390    0.5154
   30.525    0.5404
   30.660    0.5208
   30.795    0.4967
   30.930    0.4905
   31.065    0.4887
   31.200    0.4940
   31.335    0.4967
   31.470    0.4530
   31.605    0.4976
   31.740    0.4396
   31.875    0.4833
   32.010    0.4557
   32.145    0.4566
   32.280    0.4896
   32.415    0.4628
   32.550    0.4637
   32.685    0.6733
   32.820    0.4485
   32.955    0.4726
   33.090    0.4432
   33.225    0.4245
   33.360    0.4325
   33.495    0.3710
   33.630    0.4691
   33.765    0.4637
   33.900    0.4628
   34.035    0.4298
   34.170    0.4370
   34.305    0.4334
   34.440    0.3906
   34.575    0.3585
   34.710    0.3968
   34.845    0.3772
   34.980    0.3469
   35.115    0.3335
   35.250    0.3727
   35.385    0.3326
   35.520    0.3549
   35.655    0.3585
   35.790    0.3460
   35.925    0.3380
   36.060    0.3620
   36.195    0.3175
   36.330    0.3085
   36.465    0.3326
   36.600    0.3487
   36.735    0.3175
   36.870    0.3103
   37.005    0.3139
   37.140    0.4111
   37.275    0.3005
   37.410    0.3005
   37.545    0.3897
   37.680    0.2898
   37.815    0.2907
   37.950    0.2880
   38.085    0.3041
   38.220    0.2862
   38.355    0.2738
   38.490    0.2925
   38.625    0.2818
   38.760    0.2880
   38.895    0.2827
   39.030    0.2595
   39.165    0.3014
   39.300    0.2586
   39.435    0.2666
   39.570    0.3594
   39.705    0.3157
   39.840    0.2434
   39.975    0.2488
   39.990    0.2657