File: data/PXRD/PXRD_KE-205_Cu-Ka1_capillary-1mm_5s-deg.xyd
    1.500    7.2775
    1.635    7.3091
    1.770    6.4771
    1.905    5.7399
    2.040    4.9500
    2.175    4.7183
    2.310    4.5708
    2.445    4.1496
    2.580    3.7388
    2.715    4.1180
    2.850    3.6019
    2.985    3.2543
    3.120    3.4860
    3.255    3.3175
    3.390    3.3070
    3.525    2.8647
    3.660    2.6962
    3.795    2.8752
    3.930    2.5803
    4.065    2.9700
    4.200    2.6119
    4.335    2.4118
    4.470    2.7383
    4.605    2.6962
    4.740    2.9068
    4.875    2.7278
    5.010    2.5698
    5.145    2.4961
    5.280    2.5066
    5.415    2.3907
    5.550    2.7488
    5.685    2.8015
    5.820    2.8120
    5.955    2.9700
    6.090    3.2649
    6.225    3.3491
    6.360    4.0126
    6.495    5.2449
    6.630    6.1822
    6.765    5.6556
    6.900    4.9078
    7.035    4.7920
    7.170    4.4550
    7.305    3.8547
    7.440    3.7493
    7.575    4.1601
    7.710    3.7388
    7.845    2.8857
    7.980    2.6014
    8.115    2.7488
    8.250    3.4123
    8.385    4.1601
    8.520    3.7493
    8.655    3.1069
    8.790    3.0648
    8.925    2.5066
    9.060    2.5698
    9.195    2.3170
    9.330    2.4750
    9.465    2.1064
    9.600    2.0748
    9.735    2.0853
    9.870    2.1064
   10.005    2.1590
   10.140    2.1590
   10.275    2.3697
   10.410    2.7172
   10.545    2.4645
   10.680    2.5908
   10.815    2.5171
   10.950    2.6330
   11.085    2.2012
   11.220    1.8641
   11.355    2.0432
   11.490    2.2643
   11.625    2.2538
   11.760    2.1485
   11.895    2.0537
   12.030    2.1590
   12.165    2.0326
   12.300    2.0221
   12.435    1.8852
   12.570    2.3486
   12.705    2.2012
   12.840    2.0958
   12.975    1.9379
   13.110    2.1801
   13.245    1.9063
   13.380    1.9695
   13.515    1.9273
   13.650    2.1064
   13.785    1.9484
   13.920    1.8009
   14.055    1.8641
   14.190    2.1169
   14.325    2.1380
   14.460    2.3381
   14.595    2.5698
   14.730    2.5803
   14.865    2.5382
   15.000    2.2854
   15.135    2.6540
   15.270    2.5592
   15.405    2.4855
   15.540    2.4539
   15.675    2.0748
   15.810    2.2328
   15.945    2.1064
   16.080    2.2222
   16.215    2.1064
   16.350    2.3591
   16.485    2.5487
   16.620    2.5698
   16.755    2.4434
   16.890    2.0748
   17.025    2.3907
   17.160    2.4329
   17.295    2.2749
   17.430    2.3907
   17.565    2.1169
   17.700    2.2328
   17.835    1.9695
   17.970    2.1274
   18.105    2.3697
   18.240    2.3170
   18.375    2.2328
   18.510    2.1590
   18.645    2.4961
   18.780    2.4118
   18.915    2.6435
   19.050    2.7488
   19.185    3.1174
   19.320    2.9489
   19.455    3.0332
   19.590    2.6224
   19.725    2.6646
   19.860    3.0016
   19.995    2.7699
   20.130    2.9489
   20.265    2.8436
   20.400    2.9910
   20.535    2.7172
   20.670    2.7067
   20.805    2.4329
   20.940    2.8120
   21.075    2.4013
   21.210    2.7488
   21.345    2.6224
   21.480    2.4013
   21.615    2.4539
   21.750    2.4539
   21.885    2.1380
   22.020    2.0853
   22.155    2.2643
   22.290    1.9905
   22.425    1.9379
   22.560    1.9905
   22.695    2.1169
   22.830    1.9800
   22.965    1.9379
   23.100    2.0011
   23.235    2.2222
   23.370    2.1590
   23.505    1.9695
   23.640    1.9168
   23.775    2.0011
   23.910    2.0642
   24.045    2.0748
   24.180    2.0853
   24.315    2.0432
   24.450    1.9063
   24.585    2.1169
   24.720    1.8431
   24.855    2.0116
   24.990    1.9905
   25.125    1.8641
   25.260    1.9273
   25.395    1.9379
   25.530    1.9379
   25.665    1.9905
   25.800    1.8325
   25.935    1.6956
   26.070    1.9589
   26.205    1.7272
   26.340    1.7588
   26.475    1.9800
   26.610    1.7062
   26.745    1.6535
   26.880    1.6219
   27.015    1.5377
   27.150    1.8536
   27.285    1.6535
   27.420    1.7483
   27.555    1.5587
   27.690    1.7483
   27.825    1.7272
   27.960    1.6324
   28.095    1.5903
   28.230    1.5903
   28.365    1.4007
   28.500    1.6219
   28.635    1.4955
   28.770    1.3902
   28.905    1.3586
   29.040    1.5903
   29.175    1.5482
   29.310    1.3691
   29.445    1.5587
   29.580    1.5903
   29.715    1.4639
   29.850    1.5061
   29.985    1.2954
   30.120    1.4007
   30.255    1.5377
   30.390    1.2849
   30.525    1.3375
   30.660    1.4218
   30.795    1.2849
   30.930    1.2638
   31.065    1.5166
   31.200    1.3797
   31.335    1.2744
   31.470    1.1796
   31.605    1.3270
   31.740    1.2849
   31.875    1.3586
   32.010    1.2112
   32.145    1.4850
   32.280    1.3691
   32.415    1.0848
   32.550    1.0953
   32.685    1.0637
   32.820    1.0321
   32.955    1.1374
   33.090    1.2533
   33.225    1.2638
   33.360    1.0953
   33.495    1.1585
   33.630    0.9268
   33.765    1.1374
   33.900    1.0848
   34.035    1.1164
   34.170    1.1585
   34.305    1.0427
   34.440    0.9584
   34.575    1.0532
   34.710    1.0637
   34.845    0.8741
   34.980    0.9057
   35.115    0.9163
   35.250    0.9479
   35.385    1.0637
   35.520    0.9057
   35.655    0.9163
   35.790    0.9689
   35.925    0.8425
   36.060    0.9795
   36.195    0.9268
   36.330    0.6951
   36.465    0.7372
   36.600    0.8004
   36.735    0.7372
   36.870    0.9163
   37.005    0.9163
   37.140    0.8110
   37.275    0.8320
   37.410    0.8636
   37.545    0.7688
   37.680    0.8741
   37.815    0.8636
   37.950    0.7478
   38.085    0.9163
   38.220    0.7688
   38.355    0.7478
   38.490    0.7267
   38.625    0.8531
   38.760    0.6951
   38.895    0.8004
   39.030    0.7899
   39.165    0.7372
   39.300    0.7478
   39.435    0.7478
   39.570    0.7583
   39.705    0.6635
   39.840    0.6740
   39.975    0.8110
   39.990    0.7583