File: data/PXRD/PXRD_KE-230_Co-Ka1_capillary-1mm_5s-deg.xyd
    1.500   16.9823
    1.635   14.6067
    1.770   12.8304
    1.905   10.9363
    2.040    9.4596
    2.175    8.5607
    2.310    7.8117
    2.445    6.5918
    2.580    5.8855
    2.715    5.7892
    2.850    5.4789
    2.985    5.2648
    3.120    5.2220
    3.255    5.3933
    3.390    5.8213
    3.525    6.1530
    3.660    7.3194
    3.795    9.1921
    3.930   13.0230
    4.065   16.6506
    4.200   20.9952
    4.335   34.8743
    4.470   82.3328
    4.605    4.9438
    4.740    3.8523
    4.875    3.0605
    5.010    2.4077
    5.145    2.2258
    5.280    1.7978
    5.415    2.3007
    5.550    2.0011
    5.685    2.3328
    5.820    3.0498
    5.955    3.5527
    6.090    5.9711
    6.225   10.2408
    6.360   31.4500
    6.495    1.6265
    6.630    1.2306
    6.765    1.2520
    6.900    1.2199
    7.035    1.3269
    7.170    1.2841
    7.305    1.3697
    7.440    1.4660
    7.575    2.1509
    7.710    4.0021
    7.845   14.4034
    7.980    1.6907
    8.115    1.4660
    8.250    1.1878
    8.385    1.3162
    8.520    1.1236
    8.655    1.2199
    8.790    1.6907
    8.925    3.0605
    9.060   10.4334
    9.195    1.2199
    9.330    1.0059
    9.465    1.0701
    9.600    1.1878
    9.735    0.9631
    9.870    1.0701
   10.005    1.1129
   10.140    2.0974
   10.275    0.8668
   10.410    0.9203
   10.545    0.8133
   10.680    1.0701
   10.815    1.6479
   10.950    3.6811
   11.085   15.6340
   11.220    0.9310
   11.355    0.8775
   11.490    0.9310
   11.625    0.9310
   11.760    1.1878
   11.895    2.2365
   12.030    4.5265
   12.165    0.6742
   12.300    0.7705
   12.435    0.7705
   12.570    1.1236
   12.705    1.9369
   12.840    6.7095
   12.975    0.8561
   13.110    0.6849
   13.245    0.8133
   13.380    0.9952
   13.515    2.3007
   13.650    5.1257
   13.785    0.7705
   13.920    0.6742
   14.055    0.7170
   14.190    0.7384
   14.325    1.3055
   14.460    0.7812
   14.595    0.6956
   14.730    0.8026
   14.865    0.9310
   15.000    2.5040
   15.135    1.3804
   15.270    0.5886
   15.405    0.5136
   15.540    0.8026
   15.675    1.0915
   15.810    0.9952
   15.945    0.6100
   16.080    0.6207
   16.215    1.0166
   16.350    3.2852
   16.485    0.6956
   16.620    0.7705
   16.755    0.6421
   16.890    0.5886
   17.025    0.5350
   17.160    0.6742
   17.295    0.8026
   17.430    0.6421
   17.565    1.0915
   17.700    0.6849
   17.835    0.5564
   17.970    0.4922
   18.105    0.6100
   18.240    0.7063
   18.375    0.5243
   18.510    0.6528
   18.645    0.8347
   18.780    1.1343
   18.915    0.6207
   19.050    0.7277
   19.185    0.6314
   19.320    1.2520
   19.455    0.6100
   19.590    0.8133
   19.725    0.9417
   19.860    2.9642
   19.995    0.6528
   20.130    0.6207
   20.265    0.7277
   20.400    1.0166
   20.535    0.5886
   20.670    0.6528
   20.805    0.9096
   20.940    0.8989
   21.075    0.5564
   21.210    0.7598
   21.345    1.2306
   21.480    0.5886
   21.615    0.6742
   21.750    0.6742
   21.885    0.8561
   22.020    0.7705
   22.155    0.8668
   22.290    0.7919
   22.425    0.6207
   22.560    0.7598
   22.695    0.6314
   22.830    1.2627
   22.965    0.6207
   23.100    0.5778
   23.235    0.8989
   23.370    0.5993
   23.505    0.6635
   23.640    1.3483
   23.775    1.7121
   23.910    0.5993
   24.045    0.6635
   24.180    0.6100
   24.315    0.7063
   24.450    0.7277
   24.585    0.7063
   24.720    0.5778
   24.855    0.7277
   24.990    0.6421
   25.125    0.5564
   25.260    0.8347
   25.395    0.9845
   25.530    0.8882
   25.665    0.7491
   25.800    0.8882
   25.935    1.0487
   26.070    0.6207
   26.205    1.6586
   26.340    1.6158
   26.475    0.8240
   26.610    1.8620
   26.745    1.6372
   26.880    0.7277
   27.015    1.1664
   27.150    0.9203
   27.285    0.6421
   27.420    0.6956
   27.555    0.7277
   27.690    0.5671
   27.825    1.0273
   27.960    0.5243
   28.095    0.7063
   28.230    0.7598
   28.365    0.6849
   28.500    0.7491
   28.635    0.8026
   28.770    0.6849
   28.905    0.6207
   29.040    0.6956
   29.175    0.5457
   29.310    0.8133
   29.445    0.7491
   29.580    0.5886
   29.715    0.7812
   29.850    0.6528
   29.985    0.9096
   30.120    1.4660
   30.255    0.5457
   30.390    0.7277
   30.525    0.5993
   30.660    0.5993
   30.795    0.8133
   30.930    0.5778
   31.065    0.5778
   31.200    0.5671
   31.335    0.6207
   31.470    1.0273
   31.605    0.6849
   31.740    0.6100
   31.875    0.4922
   32.010    0.5350
   32.145    0.7277
   32.280    0.5671
   32.415    0.5993
   32.550    0.8347
   32.685    0.8026
   32.820    1.0594
   32.955    0.7491
   33.090    0.7170
   33.225    1.0059
   33.360    0.6207
   33.495    0.5136
   33.630    0.5671
   33.765    0.9417
   33.900    0.6421
   34.035    0.6100
   34.170    0.7919
   34.305    0.5243
   34.440    0.5136
   34.575    0.4387
   34.710    0.7812
   34.845    0.6421
   34.980    0.5778
   35.115    0.5029
   35.250    0.6314
   35.385    0.5993
   35.520    0.5564
   35.655    0.7812
   35.790    0.6207
   35.925    0.5778
   36.060    0.4922
   36.195    0.4387
   36.330    0.4601
   36.465    0.5778
   36.600    0.7812
   36.735    0.6528
   36.870    1.0059
   37.005    1.0380
   37.140    1.1343
   37.275    0.7170
   37.410    1.1236
   37.545    0.7277
   37.680    0.4173
   37.815    0.3959
   37.950    0.3424
   38.085    0.4173
   38.220    0.5350
   38.355    0.5243
   38.490    0.4922
   38.625    0.5457
   38.760    0.4708
   38.895    0.3745
   39.030    0.4387
   39.165    0.5029
   39.300    0.5029
   39.435    0.7812
   39.570    0.7919
   39.705    0.7491
   39.840    0.5886
   39.975    0.5886
   39.990    0.6528