File: data/PXRD/PXRD_KE-021_Cu-Ka1_capillary-1mm_5s-deg.xyd
    1.500   23.3175
    1.635   21.2533
    1.770   20.4423
    1.905   19.0627
    2.040   18.5993
    2.175   17.8410
    2.310   18.6940
    2.445   18.8626
    2.580   19.8526
    2.715   22.2749
    2.850   25.8241
    2.985   30.2475
    3.120   35.9452
    3.255   48.7099
    3.390   71.7325
    3.525   77.5461
    3.660   44.2127
    3.795   47.0563
    3.930   43.8020
    4.065   23.7177
    4.200   14.6182
    4.335   11.1216
    4.470    9.6261
    4.605    8.7414
    4.740    8.1622
    4.875    8.1622
    5.010    7.6461
    5.145    7.7093
    5.280    7.6461
    5.415    7.3723
    5.550    6.9721
    5.685    6.6667
    5.820    6.9616
    5.955    7.0142
    6.090    7.4039
    6.225    7.4039
    6.360    7.3618
    6.495    7.7725
    6.630    8.8046
    6.765   10.9426
    6.900   15.5450
    7.035   16.2296
    7.170   11.0058
    7.305   12.7225
    7.440   21.1480
    7.575   10.5951
    7.710   12.6382
    7.845   14.7025
    7.980   12.8699
    8.115    9.9737
    8.250    9.0469
    8.385    9.7736
    8.520   11.4797
    8.655    6.8141
    8.790    6.3823
    8.925    6.8457
    9.060    6.1295
    9.195    6.7299
    9.330    6.5298
    9.465    6.9300
    9.600    6.3191
    9.735    6.6772
    9.870    6.2559
   10.005    6.1717
   10.140    6.3296
   10.275    6.4666
   10.410    6.7615
   10.545    6.4455
   10.680    6.2454
   10.815    6.8352
   10.950    6.5087
   11.085    7.0458
   11.220    8.4255
   11.355    8.9942
   11.490    6.5192
   11.625    7.0879
   11.760    7.1722
   11.895    6.6140
   12.030    6.5298
   12.165    6.5824
   12.300    6.7404
   12.435    6.3507
   12.570    6.4244
   12.705    6.4876
   12.840    6.9616
   12.975    6.5613
   13.110    6.5929
   13.245    6.5613
   13.380    6.3402
   13.515    6.6667
   13.650    6.3718
   13.785    6.4139
   13.920    6.3928
   14.055    6.1295
   14.190    6.6983
   14.325    6.1506
   14.460    6.1927
   14.595    6.6667
   14.730    6.6456
   14.865    6.5508
   15.000    6.5298
   15.135    6.4666
   15.270    6.4666
   15.405    6.9194
   15.540    6.8668
   15.675    6.3296
   15.810    6.3928
   15.945    6.7825
   16.080    6.6140
   16.215    6.2454
   16.350    6.2770
   16.485    6.4666
   16.620    6.4982
   16.755    6.7193
   16.890    6.1295
   17.025    6.7615
   17.160    6.6561
   17.295    6.0769
   17.430    6.5192
   17.565    6.6561
   17.700    6.6561
   17.835    6.1927
   17.970    6.4244
   18.105    6.2559
   18.240    6.7720
   18.375    6.6877
   18.510    6.1401
   18.645    6.8457
   18.780    6.5403
   18.915    6.3928
   19.050    6.3612
   19.185    6.6983
   19.320    6.8773
   19.455    6.5298
   19.590    6.4560
   19.725    6.6667
   19.860    6.7404
   19.995    7.2670
   20.130    7.2143
   20.265    7.2249
   20.400    6.8036
   20.535    7.4039
   20.670    6.7404
   20.805    7.0037
   20.940    7.0563
   21.075    7.4566
   21.210    7.0669
   21.345    6.9405
   21.480    7.0774
   21.615    6.7720
   21.750    7.2459
   21.885    6.8352
   22.020    6.7299
   22.155    6.9932
   22.290    7.2038
   22.425    7.1090
   22.560    7.0669
   22.695    7.1827
   22.830    7.3302
   22.965    7.0669
   23.100    6.9616
   23.235    7.1301
   23.370    7.1933
   23.505    6.9721
   23.640    6.7193
   23.775    6.7509
   23.910    6.8984
   24.045    7.4882
   24.180    6.7509
   24.315    6.4771
   24.450    7.3196
   24.585    7.4776
   24.720    6.6561
   24.855    6.8457
   24.990    6.8457
   25.125    6.2349
   25.260    6.8668
   25.395    6.5087
   25.530    6.2981
   25.665    6.4876
   25.800    6.6561
   25.935    6.4350
   26.070    5.8031
   26.205    6.4139
   26.340    6.6667
   26.475    6.1506
   26.610    6.2454
   26.745    6.5403
   26.880    6.2665
   27.015    6.2559
   27.150    6.5298
   27.285    6.6772
   27.420    6.1927
   27.555    6.4560
   27.690    6.2875
   27.825    6.3507
   27.960    6.0137
   28.095    6.1506
   28.230    6.6772
   28.365    5.8557
   28.500    5.8241
   28.635    6.1085
   28.770    6.0874
   28.905    5.7504
   29.040    5.7925
   29.175    6.1401
   29.310    5.9400
   29.445    6.2033
   29.580    5.8873
   29.715    6.0242
   29.850    5.8557
   29.985    5.7083
   30.120    5.8768
   30.255    6.4455
   30.390    5.8031
   30.525    6.0032
   30.660    5.7609
   30.795    5.7925
   30.930    5.7399
   31.065    5.3923
   31.200    5.6451
   31.335    6.0874
   31.470    6.0664
   31.605    5.8557
   31.740    5.7925
   31.875    5.7399
   32.010    5.2343
   32.145    5.7820
   32.280    5.2449
   32.415    5.4976
   32.550    5.8662
   32.685    5.6029
   32.820    5.3397
   32.955    5.5082
   33.090    5.3081
   33.225    5.4450
   33.360    5.3081
   33.495    5.7504
   33.630    5.5819
   33.765    5.2975
   33.900    5.4239
   34.035    5.2554
   34.170    5.1290
   34.305    5.6451
   34.440    5.2870
   34.575    5.1817
   34.710    5.0869
   34.845    5.2659
   34.980    5.3291
   35.115    4.7920
   35.250    4.8447
   35.385    5.3291
   35.520    5.0342
   35.655    5.4450
   35.790    5.0869
   35.925    4.5814
   36.060    5.0869
   36.195    4.7499
   36.330    4.6130
   36.465    4.8341
   36.600    4.7709
   36.735    4.8657
   36.870    4.7393
   37.005    5.1606
   37.140    4.6130
   37.275    5.0869
   37.410    4.7709
   37.545    4.7920
   37.680    4.8341
   37.815    4.8025
   37.950    4.7920
   38.085    4.7288
   38.220    4.8236
   38.355    4.8236
   38.490    4.8763
   38.625    5.0026
   38.760    4.8868
   38.895    4.7288
   39.030    4.9710
   39.165    4.8447
   39.300    5.2870
   39.435    4.8552
   39.570    4.5076
   39.705    4.7077
   39.840    4.9394
   39.975    4.8341
   39.990    5.0869