File: data/PXRD/PXRD_KE-165_Cu-Ka1_capillary-1mm_5s-deg.xyd
    1.500   28.7941
    1.635   24.3286
    1.770   20.3791
    1.905   17.4618
    2.040   15.6609
    2.175   13.5018
    2.310   12.0906
    2.445   11.5850
    2.580   10.3002
    2.715    9.7841
    2.850    9.3523
    2.985    9.1206
    3.120    8.7204
    3.255    8.2359
    3.390    8.8362
    3.525    8.5729
    3.660    9.6261
    3.795   11.8167
    3.930   11.6166
    4.065    6.7299
    4.200    7.0879
    4.335    6.7930
    4.470    6.6772
    4.605    6.3507
    4.740    6.1295
    4.875    6.4034
    5.010    6.2981
    5.145    6.1506
    5.280    6.5087
    5.415    6.8352
    5.550    6.3086
    5.685    5.9400
    5.820    6.2981
    5.955    5.6240
    6.090    6.1717
    6.225    6.0032
    6.360    6.0137
    6.495    6.0664
    6.630    6.0874
    6.765    6.1190
    6.900    5.6345
    7.035    5.9610
    7.170    5.9505
    7.305    6.0769
    7.440    5.7188
    7.575    5.5714
    7.710    6.4139
    7.845    6.4350
    7.980    6.2033
    8.115    5.8557
    8.250    5.5608
    8.385    6.1085
    8.520    5.8241
    8.655    6.0453
    8.790    5.8662
    8.925    6.1295
    9.060    6.3507
    9.195    6.5087
    9.330    6.4771
    9.465    6.4350
    9.600    6.8984
    9.735    5.7715
    9.870    6.4876
   10.005    5.9716
   10.140    6.1401
   10.275    6.8141
   10.410    5.8347
   10.545    6.0558
   10.680    6.1085
   10.815    5.9610
   10.950    5.8662
   11.085    5.8241
   11.220    6.4244
   11.355    5.8662
   11.490    5.9400
   11.625    6.1927
   11.760    5.7609
   11.895    5.6767
   12.030    5.9294
   12.165    5.5608
   12.300    5.9189
   12.435    5.9294
   12.570    5.7293
   12.705    5.5082
   12.840    6.0032
   12.975    5.3923
   13.110    5.7399
   13.245    5.3291
   13.380    5.4976
   13.515    5.4871
   13.650    5.2975
   13.785    5.2659
   13.920    5.3818
   14.055    5.6977
   14.190    5.3607
   14.325    5.4239
   14.460    5.5292
   14.595    5.4344
   14.730    5.7820
   14.865    5.3186
   15.000    5.5503
   15.135    5.4555
   15.270    5.7609
   15.405    5.6556
   15.540    5.6345
   15.675    5.4766
   15.810    5.4660
   15.945    6.1506
   16.080    6.3086
   16.215    6.2454
   16.350    5.9926
   16.485    5.8136
   16.620    5.4344
   16.755    5.6345
   16.890    5.3502
   17.025    5.6556
   17.160    5.4555
   17.295    5.3818
   17.430    5.5503
   17.565    5.7399
   17.700    6.1717
   17.835    5.6345
   17.970    5.8557
   18.105    5.3712
   18.240    5.5503
   18.375    5.4976
   18.510    5.6240
   18.645    5.2449
   18.780    5.5924
   18.915    5.2449
   19.050    5.7504
   19.185    5.5714
   19.320    5.4239
   19.455    5.8136
   19.590    5.5714
   19.725    5.6661
   19.860    6.0032
   19.995    5.7504
   20.130    5.8136
   20.265    5.9926
   20.400    5.5924
   20.535    5.8031
   20.670    5.7925
   20.805    5.7504
   20.940    5.5819
   21.075    5.2975
   21.210    5.6767
   21.345    5.4660
   21.480    5.6556
   21.615    5.8031
   21.750    5.8662
   21.885    5.3607
   22.020    6.0453
   22.155    5.6977
   22.290    5.9610
   22.425    5.0764
   22.560    6.0453
   22.695    5.6451
   22.830    5.6661
   22.965    5.9084
   23.100    5.8873
   23.235    5.8978
   23.370    5.6240
   23.505    5.4344
   23.640    5.5503
   23.775    5.7609
   23.910    5.5503
   24.045    5.5608
   24.180    5.5082
   24.315    5.7188
   24.450    5.4660
   24.585    5.6029
   24.720    5.5714
   24.855    5.7188
   24.990    5.5187
   25.125    5.3712
   25.260    5.5819
   25.395    5.2870
   25.530    5.3397
   25.665    5.7083
   25.800    5.5292
   25.935    5.3818
   26.070    5.5398
   26.205    5.6240
   26.340    5.3291
   26.475    5.2554
   26.610    5.2133
   26.745    5.3186
   26.880    5.0026
   27.015    5.5924
   27.150    5.4239
   27.285    5.0869
   27.420    5.0342
   27.555    5.3818
   27.690    5.4871
   27.825    5.0658
   27.960    5.1501
   28.095    5.3923
   28.230    5.2238
   28.365    5.1817
   28.500    4.9289
   28.635    5.6977
   28.770    5.2238
   28.905    5.2765
   29.040    5.4028
   29.175    5.2449
   29.310    4.9078
   29.445    5.0132
   29.580    4.9816
   29.715    4.9078
   29.850    5.1606
   29.985    4.9921
   30.120    5.2449
   30.255    4.8763
   30.390    4.8341
   30.525    5.0132
   30.660    4.8868
   30.795    4.7288
   30.930    4.8763
   31.065    5.0237
   31.200    4.8973
   31.335    4.8236
   31.470    4.7499
   31.605    5.1185
   31.740    4.7288
   31.875    5.2238
   32.010    5.4555
   32.145    5.0658
   32.280    5.3291
   32.415    4.7709
   32.550    4.7499
   32.685    4.4866
   32.820    4.8341
   32.955    4.5919
   33.090    4.4655
   33.225    4.4971
   33.360    4.6551
   33.495    4.7604
   33.630    4.4655
   33.765    4.7604
   33.900    4.3391
   34.035    4.2759
   34.170    4.5182
   34.305    4.3391
   34.440    4.5392
   34.575    4.5919
   34.710    4.4866
   34.845    4.6130
   34.980    4.2654
   35.115    4.5287
   35.250    4.2338
   35.385    4.2022
   35.520    4.2549
   35.655    3.9494
   35.790    4.4655
   35.925    4.3181
   36.060    4.1390
   36.195    3.9179
   36.330    4.3707
   36.465    4.5076
   36.600    4.3497
   36.735    4.3918
   36.870    4.4339
   37.005    3.9494
   37.140    4.2759
   37.275    4.2970
   37.410    4.6024
   37.545    4.2022
   37.680    4.0969
   37.815    4.0021
   37.950    3.9600
   38.085    4.1811
   38.220    4.2654
   38.355    4.4234
   38.490    3.9705
   38.625    4.1601
   38.760    4.1285
   38.895    4.1706
   39.030    4.7499
   39.165    4.7288
   39.300    4.4550
   39.435    4.3181
   39.570    4.3497
   39.705    4.1074
   39.840    4.2549
   39.975    4.1180
   39.990    3.9179