File: data/PXRD/PXRD_KE-280_Cu-Ka1_film-3mm_3s-deg.xyd
    1.500   20.4494
    1.635   17.1669
    1.770   15.6925
    1.905   13.5159
    2.040   12.0590
    2.175   11.6553
    2.310   10.4441
    2.445   10.0228
    2.580    9.3734
    2.715    9.8122
    2.850    8.8994
    2.985    8.6888
    3.120    8.4606
    3.255    8.3728
    3.390    8.6537
    3.525    8.2675
    3.660    7.9340
    3.795    8.4430
    3.930    8.4606
    4.065    7.7409
    4.200    7.7234
    4.335    8.3202
    4.470    8.1797
    4.605    8.3728
    4.740    8.3202
    4.875    8.3728
    5.010    8.5835
    5.145    9.3558
    5.280   10.2335
    5.415   10.7425
    5.550   10.9356
    5.685   10.2861
    5.820    9.9175
    5.955    8.4255
    6.090    8.1271
    6.225    8.3553
    6.360    8.3202
    6.495    7.4074
    6.630    7.1090
    6.765    7.3196
    6.900    6.3893
    7.035    6.2313
    7.170    6.4595
    7.305    6.2313
    7.440    5.9154
    7.575    5.9505
    7.710    6.0032
    7.845    5.4590
    7.980    5.4239
    8.115    5.6345
    8.250    5.3010
    8.385    4.9500
    8.520    4.8095
    8.655    5.0728
    8.790    5.2133
    8.925    5.0026
    9.060    4.9324
    9.195    5.5643
    9.330    4.7218
    9.465    4.5814
    9.600    5.0553
    9.735    4.9149
    9.870    5.1606
   10.005    5.3712
   10.140    5.3361
   10.275    5.0728
   10.410    4.8271
   10.545    4.8622
   10.680    5.1255
   10.815    5.4766
   10.950    5.1606
   11.085    5.5819
   11.220    4.7569
   11.355    5.0202
   11.490    5.1255
   11.625    5.4766
   11.760    5.4415
   11.895    4.7569
   12.030    5.1431
   12.165    4.8973
   12.300    4.9324
   12.435    5.3361
   12.570    4.5814
   12.705    4.8798
   12.840    4.7042
   12.975    4.9500
   13.110    4.7393
   13.245    4.8622
   13.380    4.6340
   13.515    4.5463
   13.650    4.4409
   13.785    4.9500
   13.920    4.7569
   14.055    5.1957
   14.190    5.1606
   14.325    5.3712
   14.460    5.2133
   14.595    5.3361
   14.730    4.7569
   14.865    5.3186
   15.000    4.8973
   15.135    4.9675
   15.270    5.0553
   15.405    4.5814
   15.540    4.7042
   15.675    4.3181
   15.810    5.0377
   15.945    4.7744
   16.080    4.7042
   16.215    4.6691
   16.350    4.7393
   16.485    4.6867
   16.620    5.0202
   16.755    4.7218
   16.890    4.9500
   17.025    4.8271
   17.160    4.3532
   17.295    4.7920
   17.430    4.7393
   17.565    4.3181
   17.700    4.8271
   17.835    5.0026
   17.970    4.5111
   18.105    4.5111
   18.240    4.5814
   18.375    5.0026
   18.510    4.3883
   18.645    4.8798
   18.780    4.8095
   18.915    4.9500
   19.050    4.8447
   19.185    4.3181
   19.320    4.4585
   19.455    4.3181
   19.590    4.6165
   19.725    4.4234
   19.860    4.5989
   19.995    4.4760
   20.130    4.3181
   20.265    4.3532
   20.400    4.4234
   20.535    4.3707
   20.670    3.8792
   20.805    4.2478
   20.940    4.1601
   21.075    4.4058
   21.210    4.4058
   21.345    4.2478
   21.480    3.7915
   21.615    4.1074
   21.750    4.2830
   21.885    4.0548
   22.020    4.3181
   22.155    3.8792
   22.290    4.0372
   22.425    4.1250
   22.560    4.0372
   22.695    3.7213
   22.830    3.6862
   22.965    3.7037
   23.100    4.1601
   23.235    3.6159
   23.370    3.5808
   23.505    3.8266
   23.640    3.6510
   23.775    3.5808
   23.910    3.6335
   24.045    3.6862
   24.180    3.5633
   24.315    3.4229
   24.450    3.4931
   24.585    3.7915
   24.720    3.4229
   24.855    3.5106
   24.990    3.2649
   25.125    3.6862
   25.260    3.5984
   25.395    3.4931
   25.530    3.6686
   25.665    3.7388
   25.800    3.7739
   25.935    3.3175
   26.070    3.6862
   26.205    3.5106
   26.340    3.2122
   26.475    3.3351
   26.610    3.6862
   26.745    3.1420
   26.880    2.9138
   27.015    3.0367
   27.150    3.2122
   27.285    3.2824
   27.420    3.1420
   27.555    2.9314
   27.690    3.0367
   27.825    2.9489
   27.960    3.1420
   28.095    2.7909
   28.230    3.0016
   28.365    2.9489
   28.500    2.6681
   28.635    2.9840
   28.770    2.7383
   28.905    3.1596
   29.040    2.9489
   29.175    2.8612
   29.310    2.8436
   29.445    2.7207
   29.580    2.4574
   29.715    2.5979
   29.850    2.7032
   29.985    2.4048
   30.120    2.4574
   30.255    2.3170
   30.390    2.4574
   30.525    2.5452
   30.660    2.2643
   30.795    2.5979
   30.930    2.4223
   31.065    2.3872
   31.200    2.4223
   31.335    2.4048
   31.470    2.5101
   31.605    2.2643
   31.740    2.1590
   31.875    2.1590
   32.010    2.2117
   32.145    2.2468
   32.280    1.9133
   32.415    2.1064
   32.550    2.4399
   32.685    2.2292
   32.820    2.1239
   32.955    1.8782
   33.090    2.3170
   33.225    1.8606
   33.360    2.3346
   33.495    1.9308
   33.630    2.0713
   33.765    2.2995
   33.900    1.9835
   34.035    2.2995
   34.170    2.4925
   34.305    2.1064
   34.440    1.8606
   34.575    1.9308
   34.710    1.8957
   34.845    2.0537
   34.980    1.9484
   35.115    2.0011
   35.250    1.7202
   35.385    1.9133
   35.520    2.0186
   35.655    1.7553
   35.790    1.7202
   35.925    2.0713
   36.060    2.0186
   36.195    1.9659
   36.330    1.9484
   36.465    2.1239
   36.600    2.1064
   36.735    1.8957
   36.870    1.7904
   37.005    1.9308
   37.140    1.7027
   37.275    1.9308
   37.410    1.9659
   37.545    1.8957
   37.680    1.9835
   37.815    1.7729
   37.950    1.6851
   38.085    1.8957
   38.220    1.6500
   38.355    1.8782
   38.490    1.8431
   38.625    1.8957
   38.760    2.0713
   38.895    1.8431
   39.030    1.8255
   39.165    1.9484
   39.300    1.6324
   39.435    1.7378
   39.570    1.6851
   39.705    1.7202
   39.840    1.6324
   39.975    1.7202
   39.990    1.7378