File: data/PXRD/PXRD_KE-210_Co-Ka1_film-3mm_5s-deg.xyd
    1.500    4.1627
    1.635    3.6062
    1.770    3.1996
    1.905    3.0819
    2.040    2.5361
    2.175    2.6538
    2.310    2.3756
    2.445    2.3114
    2.580    2.1402
    2.715    1.9583
    2.850    1.8620
    2.985    1.8513
    3.120    2.0439
    3.255    1.9369
    3.390    1.8941
    3.525    1.8406
    3.660    1.6051
    3.795    2.2151
    3.930    3.0819
    4.065    3.6918
    4.200    3.0712
    4.335    4.4730
    4.470   10.9042
    4.605    2.2258
    4.740    2.1937
    4.875    2.0546
    5.010    1.8620
    5.145    1.9690
    5.280    1.7442
    5.415    1.5944
    5.550    1.5837
    5.685    1.6158
    5.820    1.5623
    5.955    1.8620
    6.090    2.0974
    6.225    2.7073
    6.360    5.3612
    6.495    2.3114
    6.630    1.9583
    6.765    1.8513
    6.900    2.0011
    7.035    1.5837
    7.170    1.6693
    7.305    1.5730
    7.440    1.6051
    7.575    1.5837
    7.710    1.7549
    7.845    2.7180
    7.980    1.2734
    8.115    1.4660
    8.250    1.2841
    8.385    1.2306
    8.520    1.1771
    8.655    1.1878
    8.790    1.1343
    8.925    1.2948
    9.060    1.9262
    9.195    1.2306
    9.330    1.1022
    9.465    1.0915
    9.600    1.0273
    9.735    1.0701
    9.870    1.1022
   10.005    0.8989
   10.140    1.1129
   10.275    0.8989
   10.410    0.8454
   10.545    0.8882
   10.680    0.7919
   10.815    0.9096
   10.950    1.1557
   11.085    2.8571
   11.220    0.9952
   11.355    0.7598
   11.490    0.9417
   11.625    0.8775
   11.760    0.9096
   11.895    0.9631
   12.030    0.9524
   12.165    0.8882
   12.300    0.9310
   12.435    0.8775
   12.570    1.0808
   12.705    1.2413
   12.840    1.3269
   12.975    0.9631
   13.110    0.9203
   13.245    0.8989
   13.380    1.0594
   13.515    1.0701
   13.650    0.9096
   13.785    0.9631
   13.920    0.8561
   14.055    0.8668
   14.190    0.7919
   14.325    1.0166
   14.460    0.9631
   14.595    0.9845
   14.730    0.7491
   14.865    0.9417
   15.000    1.2841
   15.135    0.7170
   15.270    0.8240
   15.405    0.8989
   15.540    0.9417
   15.675    0.9631
   15.810    0.7598
   15.945    1.0273
   16.080    0.9310
   16.215    1.0594
   16.350    1.2627
   16.485    1.0059
   16.620    0.9631
   16.755    0.8240
   16.890    1.0380
   17.025    0.9952
   17.160    0.9524
   17.295    1.0487
   17.430    0.7812
   17.565    0.9524
   17.700    0.9524
   17.835    0.9096
   17.970    0.8454
   18.105    0.9096
   18.240    0.9952
   18.375    0.7277
   18.510    0.8561
   18.645    0.9310
   18.780    0.9417
   18.915    0.9096
   19.050    0.8775
   19.185    0.8668
   19.320    0.8775
   19.455    0.8989
   19.590    0.7277
   19.725    0.7919
   19.860    0.9952
   19.995    0.8668
   20.130    0.7277
   20.265    0.8989
   20.400    0.7170
   20.535    0.8561
   20.670    0.8882
   20.805    1.0059
   20.940    0.8454
   21.075    0.7812
   21.210    0.6528
   21.345    0.8668
   21.480    0.8240
   21.615    0.7919
   21.750    0.8561
   21.885    0.8347
   22.020    0.9203
   22.155    0.8240
   22.290    0.7170
   22.425    0.7812
   22.560    0.8454
   22.695    0.8775
   22.830    0.8454
   22.965    0.7598
   23.100    0.7812
   23.235    0.8347
   23.370    0.6314
   23.505    0.6635
   23.640    0.7598
   23.775    0.8133
   23.910    0.6207
   24.045    0.6314
   24.180    0.7491
   24.315    0.7170
   24.450    0.7063
   24.585    0.7063
   24.720    0.7919
   24.855    0.6528
   24.990    0.6100
   25.125    0.7384
   25.260    0.5886
   25.395    0.7277
   25.530    0.6849
   25.665    0.6956
   25.800    0.6849
   25.935    0.6528
   26.070    0.6635
   26.205    0.7491
   26.340    0.4922
   26.475    0.5886
   26.610    0.7812
   26.745    0.7384
   26.880    0.7812
   27.015    0.7170
   27.150    0.7384
   27.285    0.6100
   27.420    0.5778
   27.555    0.5993
   27.690    0.6421
   27.825    0.5564
   27.960    0.5671
   28.095    0.6742
   28.230    0.7063
   28.365    0.5029
   28.500    0.6956
   28.635    0.5778
   28.770    0.6421
   28.905    0.5457
   29.040    0.6528
   29.175    0.5136
   29.310    0.5457
   29.445    0.5136
   29.580    0.6528
   29.715    0.6528
   29.850    0.4815
   29.985    0.6207
   30.120    0.6635
   30.255    0.4922
   30.390    0.4815
   30.525    0.5029
   30.660    0.4708
   30.795    0.5350
   30.930    0.5243
   31.065    0.4815
   31.200    0.4922
   31.335    0.6207
   31.470    0.5993
   31.605    0.5136
   31.740    0.5029
   31.875    0.4173
   32.010    0.5136
   32.145    0.5457
   32.280    0.4280
   32.415    0.4387
   32.550    0.4387
   32.685    0.5350
   32.820    0.4922
   32.955    0.3638
   33.090    0.3959
   33.225    0.5350
   33.360    0.5350
   33.495    0.4922
   33.630    0.4708
   33.765    0.3103
   33.900    0.4494
   34.035    0.4280
   34.170    0.3531
   34.305    0.3852
   34.440    0.4173
   34.575    0.4387
   34.710    0.4066
   34.845    0.3852
   34.980    0.3745
   35.115    0.4173
   35.250    0.3852
   35.385    0.3638
   35.520    0.3210
   35.655    0.4066
   35.790    0.3638
   35.925    0.3531
   36.060    0.3959
   36.195    0.2782
   36.330    0.4066
   36.465    0.3745
   36.600    0.3103
   36.735    0.3317
   36.870    0.2675
   37.005    0.3959
   37.140    0.4601
   37.275    0.2996
   37.410    0.4280
   37.545    0.3317
   37.680    0.2568
   37.815    0.2889
   37.950    0.2889
   38.085    0.3745
   38.220    0.2996
   38.355    0.2889
   38.490    0.2354
   38.625    0.2568
   38.760    0.2461
   38.895    0.2461
   39.030    0.3103
   39.165    0.2782
   39.300    0.3745
   39.435    0.3531
   39.570    0.2675
   39.705    0.2247
   39.840    0.2996
   39.975    0.2461
   39.990    0.2568