File: data/PXRD/PXRD_KE-049-2_Cu-Ka1_capillary-1mm_5s-deg.xyd
    1.500   26.1085
    1.530   26.0137
    1.560   25.5187
    1.590   25.5187
    1.620   24.4971
    1.650   23.1596
    1.680   23.9494
    1.710   23.4334
    1.740   24.0021
    1.770   22.9489
    1.800   22.3486
    1.830   22.1064
    1.860   21.8115
    1.890   21.9905
    1.920   21.6008
    1.950   21.5166
    1.980   21.2533
    2.010   20.9689
    2.040   20.9479
    2.070   21.3375
    2.100   20.7583
    2.130   21.9063
    2.160   21.6640
    2.190   21.9379
    2.220   21.8220
    2.250   22.6224
    2.280   21.9168
    2.310   22.2433
    2.340   23.1385
    2.370   23.4229
    2.400   23.8547
    2.430   24.6446
    2.460   23.9600
    2.490   25.1395
    2.520   25.7925
    2.550   25.5819
    2.580   26.0979
    2.610   27.7199
    2.640   29.7946
    2.670   28.3412
    2.700   29.5735
    2.730   32.3117
    2.760   32.5540
    2.790   34.2601
    2.820   34.5234
    2.850   36.7878
    2.880   38.7888
    2.910   40.4213
    2.940   43.3491
    2.970   43.5282
    3.000   47.5303
    3.030   49.1943
    3.060   52.5224
    3.090   57.2301
    3.120   59.8947
    3.150   64.2970
    3.180   68.9942
    3.210   75.4713
    3.240   80.0948
    3.270   88.0674
    3.300   95.9558
    3.330  106.9089
    3.360  119.4313
    3.390  136.6614
    3.420  157.6725
    3.450  183.6651
    3.480  194.2180
    3.510  175.0290
    3.540  131.0058
    3.570   88.5098
    3.600   62.7488
    3.630   51.9853
    3.660   48.1201
    3.690   48.4571
    3.720   48.3518
    3.750   50.1106
    3.780   54.1338
    3.810   58.4097
    3.840   62.4645
    3.870   68.9521
    3.900   78.2412
    3.930   81.5166
    3.960   82.4013
    3.990   79.4208
    4.020   83.1385
    4.050   87.1722
    4.080   90.0369
    4.110   89.1733
    4.140   84.6235
    4.170   77.4934
    4.200   69.8789
    4.230   59.7262
    4.260   51.5219
    4.290   42.1906
    4.320   35.0922
    4.350   29.6788
    4.380   24.9289
    4.410   21.1901
    4.440   18.7783
    4.470   16.5561
    4.500   14.4497
    4.530   13.3649
    4.560   12.6593
    4.590   11.8167
    4.620   11.3217
    4.650   11.1006
    4.680   10.1843
    4.710   10.2054
    4.740   10.0790
    4.770    9.8578
    4.800    9.3102
    4.830    9.0995
    4.860    9.0363
    4.890    8.8784
    4.920    8.5413
    4.950    8.9942
    4.980    9.2154
    5.010    8.4887
    5.040    8.5940
    5.070    8.4044
    5.100    8.6256
    5.130    8.8889
    5.160    9.4155
    5.190    8.8257
    5.220    9.1101
    5.250    8.8362
    5.280    9.2154
    5.310    9.1311
    5.340    9.3523
    5.370    9.1943
    5.400    9.5524
    5.430    9.5419
    5.460   10.2686
    5.490   10.4687
    5.520   12.0169
    5.550   11.7641
    5.580   10.3318
    5.610    8.4571
    5.640    7.2670
    5.670    7.8884
    5.700    7.6461
    5.730    7.4987
    5.760    7.3618
    5.790    7.2354
    5.820    7.7409
    5.850    7.0142
    5.880    7.1090
    5.910    7.8146
    5.940    7.7409
    5.970    7.6567
    6.000    7.5408
    6.030    7.5935
    6.060    7.5513
    6.090    7.4250
    6.120    7.5935
    6.150    7.9937
    6.180    7.9410
    6.210    7.6145
    6.240    8.2149
    6.270    7.9937
    6.300    7.9621
    6.330    8.0674
    6.360    8.8362
    6.390    8.3939
    6.420    8.5729
    6.450    8.7941
    6.480    9.1627
    6.510    9.4787
    6.540    9.4997
    6.570    9.8473
    6.600   10.4055
    6.630   10.2475
    6.660   11.0058
    6.690   11.5008
    6.720   12.4381
    6.750   13.1438
    6.780   14.5024
    6.810   15.4608
    6.840   16.5456
    6.870   18.1780
    6.900   20.4739
    6.930   23.8652
    6.960   26.8773
    6.990   26.0453
    7.020   22.2117
    7.050   17.6303
    7.080   12.7751
    7.110   10.8794
    7.140    9.4576
    7.170    8.7309
    7.200    8.4466
    7.230    8.3096
    7.260    8.0147
    7.290    7.7830
    7.320    8.1622
    7.350    8.1411
    7.380    8.0569
    7.410    8.0569
    7.440    8.0147
    7.470    7.8041
    7.500    7.9726
    7.530    8.7309
    7.560    8.1938
    7.590    8.5308
    7.620    8.8573
    7.650    8.1727
    7.680    8.9521
    7.710    9.3628
    7.740    9.7420
    7.770    9.9315
    7.800   10.5108
    7.830   11.1006
    7.860   10.7214
    7.890   10.9215
    7.920   11.3217
    7.950   11.5113
    7.980   11.1532
    8.010   12.1222
    8.040   12.4487
    8.070   13.3228
    8.100   13.9652
    8.130   14.4602
    8.160   14.3971
    8.190   14.7973
    8.220   14.7657
    8.250   15.0922
    8.280   15.2817
    8.310   15.2923
    8.340   14.9236
    8.370   14.4076
    8.400   14.0600
    8.430   13.0911
    8.460   13.1648
    8.490   12.7541
    8.520   12.3644
    8.550   12.3644
    8.580   10.9426
    8.610   11.1322
    8.640   10.6793
    8.670   10.5108
    8.700    9.9842
    8.730    9.7525
    8.760    9.5313
    8.790    9.2154
    8.820    8.7309
    8.850    8.5519
    8.880    8.5413
    8.910    9.0363
    8.940    8.1938
    8.970    8.7730
    9.000    8.4887
    9.030    8.1833
    9.060    8.6572
    9.090    8.6677
    9.120    8.9310
    9.150    8.6256
    9.180    9.4681
    9.210    9.2048
    9.240    9.3944
    9.270   10.4687
    9.300   10.4371
    9.330   10.1632
    9.360    9.8052
    9.390    8.9205
    9.420    9.4997
    9.450    9.1732
    9.480    8.7098
    9.510    8.6888
    9.540    8.7520
    9.570    8.7836
    9.600    9.7525
    9.630    8.8784
    9.660    8.7520
    9.690    8.2991
    9.720    7.6777
    9.750    7.4355
    9.780    7.3302
    9.810    7.2880
    9.840    7.6672
    9.870    7.4987
    9.900    7.3828
    9.930    7.8778
    9.960    7.6567
    9.990    7.4355