File: data/PXRD/PXRD_KE-289_Cu-Ka1_film-3mm_3s-deg.xyd
    1.500   33.4211
    1.635   28.9802
    1.770   25.3116
    1.905   22.2924
    2.040   20.0105
    2.175   18.1148
    2.310   16.8510
    2.445   15.9909
    2.580   15.1308
    2.715   15.3063
    2.850   14.4286
    2.985   14.6568
    3.120   13.6914
    3.255   16.2191
    3.390   21.6781
    3.525   30.3142
    3.660   50.9742
    3.795  119.9403
    3.930   51.5008
    4.065   11.6904
    4.200   11.3217
    4.335    9.8122
    4.470   10.1457
    4.605    9.8999
    4.740    9.8122
    4.875   10.5670
    5.010   10.5494
    5.145   12.6031
    5.280   14.9377
    5.415   26.1541
    5.550   19.8701
    5.685   11.2866
    5.820   10.5319
    5.955    9.3031
    6.090    9.6367
    6.225    8.8117
    6.360    9.5138
    6.495    8.8292
    6.630   10.0579
    6.765   10.7776
    6.900    8.3026
    7.035    7.7058
    7.170    6.8808
    7.305    7.6356
    7.440    7.0563
    7.575    7.5303
    7.710   11.9712
    7.845    9.5840
    7.980    6.4244
    8.115    6.9686
    8.250    6.1611
    8.385    6.5649
    8.520    6.6175
    8.655    7.2143
    8.790    6.4420
    8.925    6.3191
    9.060    5.7925
    9.195    6.1260
    9.330    6.4420
    9.465   11.6553
    9.600   13.1824
    9.735    6.5649
    9.870    6.0207
   10.005    6.0032
   10.140    6.1611
   10.275    9.1803
   10.410    6.3016
   10.545    6.8633
   10.680    5.9856
   10.815    6.8457
   10.950    8.0920
   11.085    9.1101
   11.220    6.4946
   11.355    6.1260
   11.490    6.1962
   11.625    8.0218
   11.760   10.1106
   11.895    6.1260
   12.030    5.8627
   12.165    6.0383
   12.300    6.7404
   12.435    5.7048
   12.570    5.3186
   12.705    5.9681
   12.840    6.2840
   12.975    9.9526
   13.110    5.7574
   13.245    5.6345
   13.380    6.3542
   13.515    7.7585
   13.650    5.7048
   13.785    5.8276
   13.920    6.2313
   14.055    7.6005
   14.190    6.3191
   14.325    5.9329
   14.460    6.1085
   14.595    5.7574
   14.730    5.9856
   14.865    6.0383
   15.000    5.7399
   15.135    6.7755
   15.270    5.5117
   15.405    5.3537
   15.540    5.3888
   15.675    5.9681
   15.810    5.9681
   15.945    5.4415
   16.080    5.9505
   16.215    6.0032
   16.350    5.5994
   16.485    5.4590
   16.620    7.4425
   16.755    6.0383
   16.890    5.8101
   17.025    7.3547
   17.160    6.4420
   17.295    5.5994
   17.430    5.6521
   17.565    5.9329
   17.700    5.6170
   17.835    5.4590
   17.970    6.2840
   18.105    5.5468
   18.240    5.7750
   18.375    6.6702
   18.510    5.7399
   18.645    5.7574
   18.780    5.9505
   18.915    5.8978
   19.050    5.3712
   19.185    5.5117
   19.320    5.9329
   19.455    5.4766
   19.590    6.7228
   19.725    5.4941
   19.860    5.7048
   19.995    5.7223
   20.130    5.3010
   20.265    5.0377
   20.400    7.8462
   20.535    5.5292
   20.670    5.8101
   20.805    5.1782
   20.940    5.3361
   21.075    5.3712
   21.210    5.0377
   21.345    5.1431
   21.480    4.6165
   21.615    5.4239
   21.750    5.0026
   21.885    6.5298
   22.020    5.3712
   22.155    5.2133
   22.290    5.7925
   22.425    4.9675
   22.560    6.8282
   22.695    5.1606
   22.830    5.1606
   22.965    7.7760
   23.100    4.7569
   23.235    5.5643
   23.370    4.9851
   23.505    4.8095
   23.640    5.0728
   23.775    4.9675
   23.910    5.5819
   24.045    4.8447
   24.180    4.5638
   24.315    4.5638
   24.450    4.4409
   24.585    4.9149
   24.720    4.6867
   24.855    4.4234
   24.990    4.7569
   25.125    5.2484
   25.260    4.8798
   25.395    5.0904
   25.530    5.3186
   25.665    4.8271
   25.800    5.5292
   25.935    5.3186
   26.070    4.8447
   26.205    4.5287
   26.340    4.7744
   26.475    4.9149
   26.610    4.6516
   26.745    4.2303
   26.880    4.5814
   27.015    5.8978
   27.150    4.3356
   27.285    4.5111
   27.420    4.4234
   27.555    4.5111
   27.690    4.7393
   27.825    4.1952
   27.960    4.3883
   28.095    4.7218
   28.230    5.1782
   28.365    4.2127
   28.500    5.0728
   28.635    4.6691
   28.770    4.7393
   28.905    4.0372
   29.040    4.5463
   29.175    4.2303
   29.310    5.2133
   29.445    4.1601
   29.580    4.0197
   29.715    4.3707
   29.850    4.4409
   29.985    3.9143
   30.120    4.3005
   30.255    4.1776
   30.390    3.8792
   30.525    3.7915
   30.660    4.0548
   30.795    3.6510
   30.930    3.6159
   31.065    4.2830
   31.200    3.7564
   31.335    3.7564
   31.470    4.0723
   31.605    3.5633
   31.740    3.7739
   31.875    3.5457
   32.010    3.5808
   32.145    3.8617
   32.280    3.3526
   32.415    3.6159
   32.550    3.4404
   32.685    3.4404
   32.820    3.3000
   32.955    4.0372
   33.090    3.5633
   33.225    3.6686
   33.360    3.1245
   33.495    3.6686
   33.630    3.4580
   33.765    3.3702
   33.900    3.8266
   34.035    3.1420
   34.170    3.1947
   34.305    3.2649
   34.440    3.2649
   34.575    3.3000
   34.710    3.2473
   34.845    3.6862
   34.980    3.5808
   35.115    3.4931
   35.250    3.3702
   35.385    3.7739
   35.520    3.1596
   35.655    3.1245
   35.790    3.4053
   35.925    3.3175
   36.060    3.6510
   36.195    3.4229
   36.330    3.4229
   36.465    3.3702
   36.600    3.6335
   36.735    3.4931
   36.870    3.3526
   37.005    3.5282
   37.140    3.5808
   37.275    3.1420
   37.410    3.4580
   37.545    3.2824
   37.680    3.2122
   37.815    3.4053
   37.950    3.2824
   38.085    3.0718
   38.220    3.0718
   38.355    3.0542
   38.490    3.3702
   38.625    3.0542
   38.760    3.2824
   38.895    2.9314
   39.030    3.0542
   39.165    3.0191
   39.300    2.9665
   39.435    3.4404
   39.570    3.0367
   39.705    3.4053
   39.840    3.0016
   39.975    3.1069
   39.990    2.9840