File: data/PXRD/PXRD_KE-187_Cu-Ka1_capillary-1mm_5s-deg.xyd
    1.500   21.6430
    1.635   17.9674
    1.770   15.1237
    1.905   12.7225
    2.040   10.3002
    2.175   10.0685
    2.310    9.0574
    2.445    8.5624
    2.580    8.4887
    2.715    8.7520
    2.850   10.1316
    2.985   12.2801
    3.120   16.1453
    3.255   25.3713
    3.390   46.3612
    3.525   50.1422
    3.660   28.7414
    3.795   39.1575
    3.930   48.0674
    4.065   21.1480
    4.200   16.6403
    4.335   10.9110
    4.470    7.8884
    4.605    5.8768
    4.740    5.2343
    4.875    4.3286
    5.010    4.1180
    5.145    4.2970
    5.280    5.0974
    5.415    7.0774
    5.550    9.7314
    5.685    3.3386
    5.820    3.4229
    5.955    3.3491
    6.090    3.2333
    6.225    3.1174
    6.360    3.0121
    6.495    3.2543
    6.630    3.6862
    6.765    5.6556
    6.900    6.8036
    7.035    6.8668
    7.170    4.0969
    7.305    3.7283
    7.440    3.5598
    7.575    3.4334
    7.710    4.4128
    7.845    5.0553
    7.980    4.1180
    8.115    4.1074
    8.250    4.3181
    8.385    4.2233
    8.520    4.0653
    8.655    4.0021
    8.790    3.4018
    8.925    3.0121
    9.060    3.0964
    9.195    2.8963
    9.330    2.9910
    9.465    3.8231
    9.600    6.1295
    9.735    3.0332
    9.870    2.9068
   10.005    2.8331
   10.140    2.7593
   10.275    3.3807
   10.410    3.1596
   10.545    3.1280
   10.680    2.8436
   10.815    2.6014
   10.950    3.0964
   11.085    3.8757
   11.220    2.8120
   11.355    2.8647
   11.490    2.8752
   11.625    3.3386
   11.760    4.1180
   11.895    2.8225
   12.030    2.6751
   12.165    2.9173
   12.300    3.0858
   12.435    2.8857
   12.570    2.5698
   12.705    2.8436
   12.840    3.0753
   12.975    3.8757
   13.110    2.8225
   13.245    2.7488
   13.380    2.5803
   13.515    2.8857
   13.650    2.7909
   13.785    2.8436
   13.920    2.6856
   14.055    3.2649
   14.190    2.8963
   14.325    2.4434
   14.460    2.5592
   14.595    2.6014
   14.730    2.6646
   14.865    2.5698
   15.000    2.5171
   15.135    2.7278
   15.270    2.6330
   15.405    2.8225
   15.540    2.5487
   15.675    2.7067
   15.810    2.7383
   15.945    2.7278
   16.080    2.9595
   16.215    2.7593
   16.350    2.5698
   16.485    2.5382
   16.620    3.2017
   16.755    2.8120
   16.890    2.4539
   17.025    2.9910
   17.160    2.5908
   17.295    2.4750
   17.430    2.8752
   17.565    3.1069
   17.700    2.8225
   17.835    2.9068
   17.970    2.8857
   18.105    2.8015
   18.240    2.8015
   18.375    2.9700
   18.510    2.5698
   18.645    2.6119
   18.780    2.8963
   18.915    2.8015
   19.050    2.6751
   19.185    2.9068
   19.320    2.7383
   19.455    2.9068
   19.590    3.0858
   19.725    2.9595
   19.860    3.0542
   19.995    2.8331
   20.130    2.7909
   20.265    3.0542
   20.400    3.4018
   20.535    2.8857
   20.670    2.6856
   20.805    2.8331
   20.940    2.8120
   21.075    2.8647
   21.210    3.2017
   21.345    2.6856
   21.480    2.9279
   21.615    3.1280
   21.750    3.0542
   21.885    2.8331
   22.020    3.1069
   22.155    3.0542
   22.290    3.3702
   22.425    2.8963
   22.560    3.1385
   22.695    3.0964
   22.830    3.1701
   22.965    3.4650
   23.100    2.7488
   23.235    2.8647
   23.370    2.9279
   23.505    2.7172
   23.640    2.8120
   23.775    2.6962
   23.910    3.1806
   24.045    2.8857
   24.180    2.6751
   24.315    2.9910
   24.450    2.6856
   24.585    2.7593
   24.720    2.9384
   24.855    3.0016
   24.990    2.6330
   25.125    2.7909
   25.260    2.7804
   25.395    2.7383
   25.530    2.5803
   25.665    2.5803
   25.800    2.8752
   25.935    2.9489
   26.070    2.5803
   26.205    2.4013
   26.340    2.7278
   26.475    2.7278
   26.610    2.5592
   26.745    2.4645
   26.880    2.8015
   27.015    2.6646
   27.150    2.5592
   27.285    2.5171
   27.420    2.5592
   27.555    2.5487
   27.690    2.3802
   27.825    2.5066
   27.960    2.7804
   28.095    2.9173
   28.230    2.8015
   28.365    2.4223
   28.500    2.7383
   28.635    2.7488
   28.770    2.4750
   28.905    2.4539
   29.040    2.7804
   29.175    2.4645
   29.310    2.6330
   29.445    2.6330
   29.580    2.4855
   29.715    2.3486
   29.850    2.6014
   29.985    2.5382
   30.120    2.3381
   30.255    2.3486
   30.390    2.6014
   30.525    2.3907
   30.660    2.7278
   30.795    2.2749
   30.930    2.4855
   31.065    2.4539
   31.200    2.3697
   31.335    2.2012
   31.470    2.1064
   31.605    2.3697
   31.740    2.2854
   31.875    2.2749
   32.010    2.5171
   32.145    2.6856
   32.280    2.0853
   32.415    2.2854
   32.550    2.1590
   32.685    2.1801
   32.820    2.2749
   32.955    2.2643
   33.090    2.1485
   33.225    2.2117
   33.360    1.9905
   33.495    2.1064
   33.630    1.9589
   33.765    2.2959
   33.900    2.2012
   34.035    2.1169
   34.170    1.9379
   34.305    2.0116
   34.440    2.0011
   34.575    2.1274
   34.710    2.1906
   34.845    2.2538
   34.980    2.1696
   35.115    1.9484
   35.250    1.9695
   35.385    2.2117
   35.520    2.0432
   35.655    1.9589
   35.790    2.0221
   35.925    1.6746
   36.060    2.0958
   36.195    2.0116
   36.330    1.8325
   36.465    1.9589
   36.600    1.9168
   36.735    1.8009
   36.870    2.0748
   37.005    1.8009
   37.140    1.9379
   37.275    1.8747
   37.410    1.7694
   37.545    2.0221
   37.680    2.0958
   37.815    1.9168
   37.950    1.8325
   38.085    1.8115
   38.220    1.6008
   38.355    2.0853
   38.490    1.8220
   38.625    1.8852
   38.760    1.6535
   38.895    1.8957
   39.030    1.6851
   39.165    1.9484
   39.300    1.9484
   39.435    1.9484
   39.570    1.8852
   39.705    1.6535
   39.840    1.6956
   39.975    1.5166
   39.990    1.6851