File: data/PXRD/PXRD_KE-254_Co-Ka1_film-3mm_3s-deg.xyd
    1.500    3.2994
    1.545    3.6026
    1.590    3.2281
    1.635    2.9963
    1.680    2.8714
    1.725    3.2638
    1.770    2.9606
    1.815    2.7822
    1.860    2.4790
    1.905    2.6396
    1.950    2.3364
    1.995    2.3364
    2.040    2.2472
    2.085    2.3542
    2.130    2.5682
    2.175    2.1045
    2.220    1.9618
    2.265    2.2650
    2.310    2.4434
    2.355    2.1223
    2.400    2.3185
    2.445    1.9797
    2.490    1.9797
    2.535    2.1223
    2.580    1.8727
    2.625    2.2650
    2.670    1.7478
    2.715    1.6230
    2.760    2.0153
    2.805    1.5873
    2.850    1.5160
    2.895    1.7478
    2.940    1.6051
    2.985    1.6943
    3.030    1.8370
    3.075    1.8192
    3.120    1.6230
    3.165    1.7121
    3.210    1.6765
    3.255    1.4446
    3.300    1.7300
    3.345    1.4268
    3.390    1.5160
    3.435    1.4268
    3.480    1.5516
    3.525    1.5695
    3.570    1.4446
    3.615    1.7300
    3.660    1.7121
    3.705    1.8192
    3.750    1.8192
    3.795    1.8905
    3.840    2.0510
    3.885    2.0688
    3.930    2.0332
    3.975    2.3007
    4.020    2.3007
    4.065    2.4790
    4.110    2.5861
    4.155    2.5147
    4.200    2.4969
    4.245    2.8714
    4.290    3.5491
    4.335    4.2625
    4.380    5.3861
    4.425    7.5620
    4.470   11.1289
    4.515   21.8477
    4.560    3.0854
    4.605    1.8727
    4.650    1.8013
    4.695    1.9797
    4.740    1.6051
    4.785    1.4981
    4.830    1.7121
    4.875    1.7657
    4.920    1.4268
    4.965    1.5695
    5.010    1.5338
    5.055    1.4446
    5.100    1.5338
    5.145    1.6408
    5.190    1.2663
    5.235    1.6408
    5.280    1.9083
    5.325    1.6051
    5.370    1.4981
    5.415    1.3376
    5.460    1.1949
    5.505    1.6408
    5.550    1.3554
    5.595    1.9618
    5.640    1.4803
    5.685    1.4803
    5.730    1.5695
    5.775    1.5338
    5.820    1.7300
    5.865    1.5516
    5.910    1.4090
    5.955    1.7478
    6.000    2.1045
    6.045    2.0688
    6.090    2.0510
    6.135    2.4255
    6.180    1.9975
    6.225    3.0319
    6.270    2.8536
    6.315    3.9415
    6.360    6.4205
    6.405    8.8639
    6.450    2.4612
    6.495    1.8727
    6.540    1.7300
    6.585    2.0510
    6.630    1.9975
    6.675    2.2829
    6.720    1.6230
    6.765    1.8370
    6.810    2.2294
    6.855    1.6230
    6.900    1.6230
    6.945    1.2841
    6.990    1.4803
    7.035    1.6586
    7.080    1.5338
    7.125    1.6051
    7.170    1.3198
    7.215    1.5160
    7.260    1.4268
    7.305    1.5695
    7.350    1.2306
    7.395    1.4090
    7.440    1.3911
    7.485    1.5160
    7.530    1.3198
    7.575    1.3019
    7.620    1.4625
    7.665    1.4803
    7.710    1.4625
    7.755    1.6943
    7.800    2.4969
    7.845    3.7275
    7.890    1.4981
    7.935    1.3019
    7.980    1.3911
    8.025    1.1593
    8.070    1.2306
    8.115    1.3911
    8.160    1.2306
    8.205    1.1414
    8.250    1.0166
    8.295    1.2128
    8.340    1.0166
    8.385    1.3019
    8.430    1.2306
    8.475    1.1058
    8.520    1.1236
    8.565    0.9809
    8.610    1.1949
    8.655    0.8917
    8.700    1.0166
    8.745    0.9274
    8.790    1.0879
    8.835    1.1236
    8.880    1.1058
    8.925    1.4268
    8.970    1.3198
    9.015    1.9440
    9.060    2.3542
    9.105    1.1236
    9.150    1.1058
    9.195    0.8382
    9.240    0.9274
    9.285    1.0523
    9.330    1.0879
    9.375    0.9452
    9.420    0.8739
    9.465    1.0523
    9.510    0.8026
    9.555    1.0166
    9.600    0.8739
    9.645    0.9096
    9.690    0.9096
    9.735    1.1236
    9.780    0.8382
    9.825    0.9274
    9.870    0.6064
    9.915    0.8382
    9.960    0.9631
   10.005    1.0879
   10.050    0.8561
   10.095    0.9452
   10.140    0.8917
   10.185    1.0166
   10.230    0.8561
   10.275    0.9452
   10.320    0.9452
   10.365    0.9274
   10.410    0.9452
   10.455    0.7847
   10.500    1.0166
   10.545    0.7847
   10.590    0.8204
   10.635    0.7847
   10.680    0.8204
   10.725    0.6956
   10.770    0.7491
   10.815    0.8026
   10.860    0.7312
   10.905    1.0879
   10.950    0.8382
   10.995    1.1949
   11.040    1.7121
   11.085    3.7096
   11.130    1.4446
   11.175    0.6777
   11.220    0.8917
   11.265    0.8739
   11.310    0.8204
   11.355    0.8917
   11.400    0.8382
   11.445    0.8739
   11.490    0.7669
   11.535    0.8382
   11.580    0.9452
   11.625    0.9096
   11.670    0.9096
   11.715    0.8382
   11.760    0.8917
   11.805    0.7312
   11.850    1.1236
   11.895    1.1593
   11.940    1.3554
   11.985    1.6230
   12.030    1.0344
   12.075    0.7312
   12.120    0.8917
   12.165    0.5707
   12.210    0.8382
   12.255    0.7312
   12.300    0.9096
   12.345    0.7847
   12.390    0.9096
   12.435    0.7669
   12.480    0.8561
   12.525    0.8026
   12.570    0.8204
   12.615    0.7669
   12.660    0.8739
   12.705    0.8382
   12.750    1.1593
   12.795    1.3911
   12.840    1.3376
   12.885    0.8917
   12.930    0.8561
   12.975    1.1593
   13.020    0.8382
   13.065    0.9809
   13.110    0.8917
   13.155    0.6421
   13.200    0.7847
   13.245    0.8917
   13.290    0.9274