File: data/PXRD/PXRD_KE-244-2_Co-Ka1_capillary-1mm_5s-deg.xyd
    1.500    1.3376
    1.635    1.1664
    1.770    0.9738
    1.905    0.9631
    2.040    0.7812
    2.175    0.7170
    2.310    0.6207
    2.445    0.5993
    2.580    0.5564
    2.715    0.5671
    2.850    0.6100
    2.985    0.5671
    3.120    0.4066
    3.255    0.6314
    3.390    0.7063
    3.525    0.9738
    3.660    0.5564
    3.795    0.5564
    3.930    0.6314
    4.065    0.5136
    4.200    0.5886
    4.335    0.4066
    4.470    0.5564
    4.605    0.5457
    4.740    0.4494
    4.875    0.5993
    5.010    0.4280
    5.145    0.4387
    5.280    0.4601
    5.415    0.5457
    5.550    0.5243
    5.685    0.6956
    5.820    0.5671
    5.955    0.5243
    6.090    0.6207
    6.225    0.6100
    6.360    0.5564
    6.495    0.5993
    6.630    0.5671
    6.765    0.7277
    6.900    0.6421
    7.035    0.5886
    7.170    0.6956
    7.305    0.5350
    7.440    0.5136
    7.575    0.4066
    7.710    0.5671
    7.845    0.4494
    7.980    0.4494
    8.115    0.4066
    8.250    0.4922
    8.385    0.4708
    8.520    0.3852
    8.655    0.4708
    8.790    0.4280
    8.925    0.5029
    9.060    0.4494
    9.195    0.5350
    9.330    0.4280
    9.465    0.4280
    9.600    0.4280
    9.735    0.3959
    9.870    0.4494
   10.005    0.4601
   10.140    0.4066
   10.275    0.3959
   10.410    0.5564
   10.545    0.4922
   10.680    0.4815
   10.815    0.5564
   10.950    0.4387
   11.085    0.3959
   11.220    0.6421
   11.355    0.4815
   11.490    0.6849
   11.625    0.5457
   11.760    0.5243
   11.895    0.5778
   12.030    0.6207
   12.165    0.5778
   12.300    0.4601
   12.435    0.4173
   12.570    0.4815
   12.705    0.4815
   12.840    0.5243
   12.975    0.5029
   13.110    0.4066
   13.245    0.4708
   13.380    0.3959
   13.515    0.5350
   13.650    0.3638
   13.785    0.5671
   13.920    0.4922
   14.055    0.4815
   14.190    0.4494
   14.325    0.4066
   14.460    0.4280
   14.595    0.4922
   14.730    0.3317
   14.865    0.3638
   15.000    0.3745
   15.135    0.5029
   15.270    0.5243
   15.405    0.4815
   15.540    0.4815
   15.675    0.4601
   15.810    0.3852
   15.945    0.4601
   16.080    0.4066
   16.215    0.3745
   16.350    0.4280
   16.485    0.3424
   16.620    0.4173
   16.755    0.3745
   16.890    0.4173
   17.025    0.3531
   17.160    0.4387
   17.295    0.4280
   17.430    0.3745
   17.565    0.4494
   17.700    0.3210
   17.835    0.4494
   17.970    0.3852
   18.105    0.4601
   18.240    0.4066
   18.375    0.4815
   18.510    0.3745
   18.645    0.3745
   18.780    0.4066
   18.915    0.3959
   19.050    0.4280
   19.185    0.3852
   19.320    0.4494
   19.455    0.5136
   19.590    0.4173
   19.725    0.4708
   19.860    0.3852
   19.995    0.3424
   20.130    0.2568
   20.265    0.4066
   20.400    0.3531
   20.535    0.4815
   20.670    0.3638
   20.805    0.3959
   20.940    0.4173
   21.075    0.4815
   21.210    0.3638
   21.345    0.3852
   21.480    0.3852
   21.615    0.4387
   21.750    0.5457
   21.885    0.4280
   22.020    0.3852
   22.155    0.4922
   22.290    0.3745
   22.425    0.5350
   22.560    0.4066
   22.695    0.4601
   22.830    0.4815
   22.965    0.3959
   23.100    0.4066
   23.235    0.3959
   23.370    0.5671
   23.505    0.4280
   23.640    0.4494
   23.775    0.4494
   23.910    0.5136
   24.045    0.4708
   24.180    0.4280
   24.315    0.5029
   24.450    0.4922
   24.585    0.5243
   24.720    0.4922
   24.855    0.4601
   24.990    0.4815
   25.125    0.4815
   25.260    0.5136
   25.395    0.4708
   25.530    0.4815
   25.665    0.5136
   25.800    0.4280
   25.935    0.4922
   26.070    0.5350
   26.205    0.4601
   26.340    0.5671
   26.475    0.4815
   26.610    0.4387
   26.745    0.5029
   26.880    0.5243
   27.015    0.5243
   27.150    0.5671
   27.285    0.5350
   27.420    0.4708
   27.555    0.4815
   27.690    0.4601
   27.825    0.4494
   27.960    0.4387
   28.095    0.4815
   28.230    0.4387
   28.365    0.4280
   28.500    0.5886
   28.635    0.4815
   28.770    0.4601
   28.905    0.4387
   29.040    0.3852
   29.175    0.4066
   29.310    0.4601
   29.445    0.3745
   29.580    0.3424
   29.715    0.3959
   29.850    0.4173
   29.985    0.4173
   30.120    0.4922
   30.255    0.3317
   30.390    0.4494
   30.525    0.4066
   30.660    0.4815
   30.795    0.4173
   30.930    0.4280
   31.065    0.4066
   31.200    0.4387
   31.335    0.3317
   31.470    0.4280
   31.605    0.3210
   31.740    0.4601
   31.875    0.3852
   32.010    0.3638
   32.145    0.3317
   32.280    0.3852
   32.415    0.4708
   32.550    0.3959
   32.685    0.5243
   32.820    0.3531
   32.955    0.3424
   33.090    0.4280
   33.225    0.3852
   33.360    0.3531
   33.495    0.3317
   33.630    0.3852
   33.765    0.4173
   33.900    0.3638
   34.035    0.3745
   34.170    0.3424
   34.305    0.3531
   34.440    0.3531
   34.575    0.3638
   34.710    0.3745
   34.845    0.2782
   34.980    0.4280
   35.115    0.3210
   35.250    0.3103
   35.385    0.3531
   35.520    0.2568
   35.655    0.3103
   35.790    0.2568
   35.925    0.3317
   36.060    0.4173
   36.195    0.3852
   36.330    0.3531
   36.465    0.4387
   36.600    0.2996
   36.735    0.3210
   36.870    0.2354
   37.005    0.2247
   37.140    0.2782
   37.275    0.3103
   37.410    0.2996
   37.545    0.2140
   37.680    0.3210
   37.815    0.2889
   37.950    0.3103
   38.085    0.2889
   38.220    0.3317
   38.355    0.1926
   38.490    0.2568
   38.625    0.2782
   38.760    0.2996
   38.895    0.2140
   39.030    0.2140
   39.165    0.2568
   39.300    0.1819
   39.435    0.2354
   39.570    0.2889
   39.705    0.1926
   39.840    0.2461
   39.975    0.2675
   39.990    0.2889