File: data/PXRD/PXRD_KE-099_Cu-Ka1_capillary-1mm_5s-deg.xyd
    1.500   53.5440
    1.635   44.4444
    1.770   34.5866
    1.905   28.7941
    2.040   23.6440
    2.175   19.2628
    2.310   17.2091
    2.445   14.1864
    2.580   12.6593
    2.715   10.7214
    2.850    9.7420
    2.985    8.9731
    3.120    8.3412
    3.255    7.9410
    3.390    7.0669
    3.525    6.7825
    3.660    6.3086
    3.795    6.3507
    3.930    5.4766
    4.065    5.7293
    4.200    5.7820
    4.335    5.6029
    4.470    4.9921
    4.605    5.0132
    4.740    4.3813
    4.875    4.8131
    5.010    4.6340
    5.145    4.7183
    5.280    4.2865
    5.415    4.6445
    5.550    4.3391
    5.685    4.2654
    5.820    4.2759
    5.955    4.4760
    6.090    4.5919
    6.225    4.2338
    6.360    4.4339
    6.495    4.1811
    6.630    3.9705
    6.765    4.1390
    6.900    3.8231
    7.035    4.0653
    7.170    4.1180
    7.305    4.1496
    7.440    4.0864
    7.575    3.9073
    7.710    3.7704
    7.845    4.2549
    7.980    4.0126
    8.115    3.7915
    8.250    4.0337
    8.385    4.0126
    8.520    3.8968
    8.655    4.2865
    8.790    4.1706
    8.925    4.2022
    9.060    3.8968
    9.195    4.0337
    9.330    3.8968
    9.465    4.2022
    9.600    4.0126
    9.735    4.3075
    9.870    4.2022
   10.005    4.0548
   10.140    4.1601
   10.275    3.9073
   10.410    3.9810
   10.545    4.0548
   10.680    4.0864
   10.815    4.3497
   10.950    3.9494
   11.085    4.0337
   11.220    3.9705
   11.355    3.8020
   11.490    3.9494
   11.625    4.2022
   11.760    3.9073
   11.895    3.8441
   12.030    3.9494
   12.165    3.6019
   12.300    3.7704
   12.435    3.8757
   12.570    3.9389
   12.705    3.4544
   12.840    3.7072
   12.975    3.4544
   13.110    3.6967
   13.245    3.5914
   13.380    3.7177
   13.515    3.6335
   13.650    3.5071
   13.785    3.5808
   13.920    3.5703
   14.055    3.4650
   14.190    3.8125
   14.325    3.7599
   14.460    3.4229
   14.595    3.1280
   14.730    3.5914
   14.865    3.4123
   15.000    3.6124
   15.135    3.6019
   15.270    3.4755
   15.405    3.6124
   15.540    3.3491
   15.675    3.7704
   15.810    3.6019
   15.945    3.4018
   16.080    3.4755
   16.215    3.7704
   16.350    3.5282
   16.485    3.5808
   16.620    3.3913
   16.755    3.5387
   16.890    3.6440
   17.025    3.4544
   17.160    3.6124
   17.295    3.6756
   17.430    3.5176
   17.565    3.4755
   17.700    3.9179
   17.835    3.6651
   17.970    3.6967
   18.105    3.6124
   18.240    3.7283
   18.375    3.8231
   18.510    3.7388
   18.645    3.7915
   18.780    3.4860
   18.915    3.8863
   19.050    3.5703
   19.185    3.4229
   19.320    3.5282
   19.455    3.6862
   19.590    4.1285
   19.725    3.8863
   19.860    3.8125
   19.995    3.8231
   20.130    3.8652
   20.265    3.8336
   20.400    3.9389
   20.535    3.9810
   20.670    3.7704
   20.805    3.9179
   20.940    4.0969
   21.075    3.9073
   21.210    4.1601
   21.345    4.0442
   21.480    3.8336
   21.615    3.9705
   21.750    4.5708
   21.885    3.9179
   22.020    4.1180
   22.155    3.7809
   22.290    4.0021
   22.425    4.1496
   22.560    4.1917
   22.695    3.8968
   22.830    4.2654
   22.965    3.9284
   23.100    4.1390
   23.235    4.1390
   23.370    3.9179
   23.505    3.8336
   23.640    4.0758
   23.775    3.9600
   23.910    3.9179
   24.045    3.8336
   24.180    4.1074
   24.315    3.9916
   24.450    4.0864
   24.585    4.1074
   24.720    3.7599
   24.855    3.9600
   24.990    3.8231
   25.125    3.8231
   25.260    3.7809
   25.395    3.7704
   25.530    3.7599
   25.665    3.6335
   25.800    3.8547
   25.935    3.5703
   26.070    3.6335
   26.205    3.8757
   26.340    3.9705
   26.475    3.8547
   26.610    3.6440
   26.745    3.6335
   26.880    3.5282
   27.015    3.5703
   27.150    3.7915
   27.285    3.6651
   27.420    3.6019
   27.555    3.3807
   27.690    3.7493
   27.825    3.3913
   27.960    3.8547
   28.095    3.9705
   28.230    3.6440
   28.365    3.5176
   28.500    3.3491
   28.635    3.5598
   28.770    3.4544
   28.905    3.5071
   29.040    3.6335
   29.175    3.4229
   29.310    3.2333
   29.445    3.4544
   29.580    3.3070
   29.715    3.3913
   29.850    3.4123
   29.985    3.3702
   30.120    3.3702
   30.255    3.1701
   30.390    3.3807
   30.525    3.2122
   30.660    3.4544
   30.795    3.0542
   30.930    3.3386
   31.065    3.0437
   31.200    2.8331
   31.335    3.1596
   31.470    3.2017
   31.605    3.1490
   31.740    3.1912
   31.875    3.0648
   32.010    3.0964
   32.145    2.9384
   32.280    2.9595
   32.415    3.0858
   32.550    2.9068
   32.685    2.8647
   32.820    2.9489
   32.955    2.8857
   33.090    2.8647
   33.225    2.6962
   33.360    2.8436
   33.495    2.8541
   33.630    2.7278
   33.765    3.0437
   33.900    2.7172
   34.035    2.8120
   34.170    2.9805
   34.305    2.6856
   34.440    2.5487
   34.575    2.6646
   34.710    2.8541
   34.845    2.5066
   34.980    2.7699
   35.115    2.7172
   35.250    2.6435
   35.385    2.5908
   35.520    2.6435
   35.655    2.5592
   35.790    2.7067
   35.925    2.2854
   36.060    2.5698
   36.195    2.4539
   36.330    2.4539
   36.465    2.5066
   36.600    2.4961
   36.735    2.5592
   36.870    2.4539
   37.005    2.5803
   37.140    2.3802
   37.275    2.1485
   37.410    2.2222
   37.545    2.3591
   37.680    2.4223
   37.815    2.2222
   37.950    2.3170
   38.085    2.3170
   38.220    2.4329
   38.355    2.2012
   38.490    2.5171
   38.625    2.3907
   38.760    2.2749
   38.895    2.3591
   39.030    2.4539
   39.165    2.2117
   39.300    2.2538
   39.435    2.5592
   39.570    2.3065
   39.705    2.4329
   39.840    2.2117
   39.975    2.2854
   39.990    2.3065