File: data/PXRD/PXRD_KE-258_Co-Ka1_film-3mm_3s-deg.xyd
    1.500    4.6549
    1.635    3.9237
    1.770    3.5313
    1.905    2.7644
    2.040    3.1033
    2.175    2.4077
    2.310    2.5682
    2.445    2.1402
    2.580    2.2650
    2.715    1.7300
    2.850    1.8727
    2.985    2.0332
    3.120    1.8192
    3.255    1.9975
    3.390    1.5160
    3.525    1.6408
    3.660    1.6230
    3.795    1.7657
    3.930    1.8013
    4.065    1.8727
    4.200    2.1223
    4.335    3.4956
    4.470    7.6333
    4.605    1.9262
    4.740    1.6051
    4.875    1.5160
    5.010    1.5160
    5.145    1.2841
    5.280    1.4981
    5.415    1.3911
    5.550    1.4981
    5.685    1.6943
    5.820    1.5873
    5.955    1.4803
    6.090    1.8370
    6.225    2.2294
    6.360    3.5313
    6.495    2.0510
    6.630    1.8370
    6.765    1.7657
    6.900    1.7478
    7.035    1.4803
    7.170    1.5160
    7.305    1.4981
    7.440    1.4625
    7.575    1.2841
    7.710    1.4625
    7.845    1.6051
    7.980    1.4803
    8.115    1.2841
    8.250    1.4268
    8.385    1.1949
    8.520    1.2306
    8.655    0.9988
    8.790    1.0523
    8.925    1.0879
    9.060    1.5873
    9.195    0.9988
    9.330    1.0523
    9.465    0.9274
    9.600    0.9096
    9.735    1.0166
    9.870    0.8561
   10.005    0.7312
   10.140    0.8561
   10.275    0.8917
   10.410    0.8204
   10.545    0.7847
   10.680    0.9631
   10.815    0.7491
   10.950    0.7491
   11.085    1.3733
   11.220    0.8026
   11.355    0.9452
   11.490    0.9452
   11.625    0.8204
   11.760    0.6956
   11.895    0.7312
   12.030    1.2306
   12.165    0.8561
   12.300    0.7134
   12.435    0.8382
   12.570    0.6956
   12.705    0.8561
   12.840    1.4268
   12.975    1.0523
   13.110    0.9631
   13.245    0.7134
   13.380    0.7847
   13.515    0.7847
   13.650    1.5160
   13.785    0.9096
   13.920    0.9096
   14.055    0.7847
   14.190    0.8204
   14.325    0.7491
   14.460    0.7312
   14.595    0.8917
   14.730    0.7669
   14.865    0.9452
   15.000    0.7847
   15.135    0.8739
   15.270    0.7491
   15.405    0.6421
   15.540    0.9096
   15.675    0.7134
   15.810    0.6956
   15.945    0.8026
   16.080    0.8382
   16.215    0.7134
   16.350    0.8739
   16.485    0.8917
   16.620    0.8561
   16.755    0.8204
   16.890    0.8739
   17.025    0.8917
   17.160    0.7134
   17.295    1.0523
   17.430    0.9452
   17.565    0.8917
   17.700    0.6956
   17.835    0.8026
   17.970    0.5886
   18.105    0.5350
   18.240    0.8026
   18.375    0.7491
   18.510    0.8204
   18.645    0.8026
   18.780    0.9452
   18.915    0.7847
   19.050    0.7847
   19.185    0.7491
   19.320    0.9452
   19.455    0.6064
   19.590    0.6599
   19.725    0.8026
   19.860    1.1236
   19.995    0.7312
   20.130    0.6421
   20.265    0.8204
   20.400    0.6777
   20.535    0.5172
   20.670    0.6599
   20.805    0.8026
   20.940    0.6956
   21.075    0.8917
   21.210    0.7669
   21.345    0.6777
   21.480    0.6421
   21.615    0.7847
   21.750    0.7312
   21.885    0.7134
   22.020    0.8204
   22.155    0.8204
   22.290    0.5886
   22.425    0.7669
   22.560    0.5350
   22.695    0.5707
   22.830    0.8204
   22.965    0.7847
   23.100    0.6956
   23.235    0.7134
   23.370    0.7134
   23.505    0.7134
   23.640    0.6421
   23.775    0.8561
   23.910    0.7312
   24.045    0.6777
   24.180    0.5529
   24.315    0.7312
   24.450    0.5529
   24.585    0.6956
   24.720    0.5172
   24.855    0.6956
   24.990    0.6599
   25.125    0.7134
   25.260    0.5350
   25.395    0.4815
   25.530    0.7134
   25.665    0.5707
   25.800    0.5707
   25.935    0.4815
   26.070    0.5529
   26.205    0.6956
   26.340    0.8917
   26.475    0.5886
   26.610    0.5886
   26.745    0.7847
   26.880    0.6599
   27.015    0.6421
   27.150    0.6956
   27.285    0.5529
   27.420    0.4815
   27.555    0.4994
   27.690    0.4994
   27.825    0.5529
   27.960    0.6064
   28.095    0.5529
   28.230    0.6421
   28.365    0.5172
   28.500    0.4459
   28.635    0.6242
   28.770    0.3924
   28.905    0.6421
   29.040    0.5886
   29.175    0.5350
   29.310    0.4815
   29.445    0.3745
   29.580    0.4815
   29.715    0.5529
   29.850    0.4815
   29.985    0.5350
   30.120    0.6956
   30.255    0.4280
   30.390    0.4280
   30.525    0.4459
   30.660    0.4994
   30.795    0.5172
   30.930    0.5350
   31.065    0.4459
   31.200    0.3745
   31.335    0.4280
   31.470    0.4102
   31.605    0.6242
   31.740    0.4637
   31.875    0.5172
   32.010    0.4280
   32.145    0.5172
   32.280    0.5529
   32.415    0.4102
   32.550    0.3567
   32.685    0.5886
   32.820    0.3567
   32.955    0.3210
   33.090    0.2675
   33.225    0.4459
   33.360    0.5350
   33.495    0.3924
   33.630    0.5350
   33.765    0.4637
   33.900    0.4102
   34.035    0.4280
   34.170    0.4459
   34.305    0.3389
   34.440    0.3567
   34.575    0.4102
   34.710    0.3032
   34.845    0.4102
   34.980    0.4102
   35.115    0.4637
   35.250    0.2497
   35.385    0.3745
   35.520    0.4102
   35.655    0.4637
   35.790    0.2497
   35.925    0.3210
   36.060    0.3032
   36.195    0.3567
   36.330    0.3210
   36.465    0.2675
   36.600    0.3210
   36.735    0.3389
   36.870    0.3210
   37.005    0.3210
   37.140    0.2854
   37.275    0.3389
   37.410    0.2140
   37.545    0.3924
   37.680    0.2497
   37.815    0.2140
   37.950    0.3210
   38.085    0.3032
   38.220    0.2497
   38.355    0.2854
   38.490    0.2854
   38.625    0.4102
   38.760    0.2675
   38.895    0.2497
   39.030    0.2497
   39.165    0.3032
   39.300    0.2497
   39.435    0.2140
   39.570    0.2675
   39.705    0.2854
   39.840    0.2319
   39.975    0.2497
   39.990    0.1962