File: data/PXRD/PXRD_KE-048-2_Cu-Ka1_capillary-1mm_5s-deg.xyd
    1.500   37.1353
    1.530   36.6193
    1.560   35.2396
    1.590   35.1132
    1.620   34.3760
    1.650   33.3755
    1.680   33.3860
    1.710   33.0174
    1.740   32.7225
    1.770   31.7009
    1.800   31.1954
    1.830   30.6898
    1.860   30.4476
    1.890   30.0369
    1.920   29.4997
    1.950   29.2364
    1.980   28.8468
    2.010   29.2786
    2.040   28.6888
    2.070   28.4360
    2.100   28.4992
    2.130   28.1201
    2.160   27.9832
    2.190   28.8468
    2.220   28.6888
    2.250   27.8462
    2.280   29.0785
    2.310   29.4997
    2.340   28.9310
    2.370   29.2786
    2.400   29.4260
    2.430   30.6582
    2.460   30.4792
    2.490   32.3749
    2.520   31.1954
    2.550   32.9963
    2.580   33.3123
    2.610   33.2807
    2.640   35.2923
    2.670   36.7035
    2.700   37.5250
    2.730   38.3992
    2.760   39.8210
    2.790   42.7488
    2.820   44.4971
    2.850   45.5187
    2.880   48.5413
    2.910   49.9842
    2.940   52.1854
    2.970   54.5866
    3.000   57.6198
    3.030   60.6003
    3.060   65.5503
    3.090   68.0147
    3.120   73.2807
    3.150   80.7372
    3.180   84.5919
    3.210   91.3849
    3.240   99.6314
    3.270  108.1201
    3.300  118.5571
    3.330  132.1011
    3.360  149.5419
    3.390  169.2470
    3.420  197.3249
    3.450  230.2159
    3.480  243.4123
    3.510  219.0100
    3.540  160.7794
    3.570  111.9642
    3.600   86.1085
    3.630   80.5582
    3.660   80.4002
    3.690   84.5076
    3.720   89.0574
    3.750   98.3254
    3.780  107.6040
    3.810  122.3907
    3.840  135.8926
    3.870  154.8289
    3.900  164.4550
    3.930  162.8120
    3.960  139.9368
    3.990  109.6788
    4.020   78.9152
    4.050   54.9131
    4.080   40.0843
    4.110   30.3739
    4.140   23.9284
    4.170   20.6635
    4.200   18.1043
    4.230   15.5661
    4.260   14.2812
    4.290   13.1332
    4.320   12.8067
    4.350   11.7957
    4.380   10.9005
    4.410   10.6898
    4.440   10.4897
    4.470   10.2264
    4.500   10.0053
    4.530    9.6893
    4.560    9.2575
    4.590    9.0363
    4.620    9.3207
    4.650    9.0258
    4.680    9.0679
    4.710    8.8046
    4.740    8.7414
    4.770    8.7520
    4.800    8.6888
    4.830    8.3096
    4.860    8.8678
    4.890    9.1838
    4.920    8.5940
    4.950    9.1417
    4.980    8.8784
    5.010    8.8994
    5.040    9.1627
    5.070    9.0047
    5.100    8.9205
    5.130    8.7520
    5.160    9.1311
    5.190    9.5419
    5.220    9.3523
    5.250    9.0469
    5.280    9.4681
    5.310    9.6998
    5.340    9.7209
    5.370    9.4892
    5.400    8.7730
    5.430    9.2680
    5.460    9.1838
    5.490    9.2259
    5.520    9.6893
    5.550   10.7846
    5.580   10.5951
    5.610   10.0158
    5.640    9.2259
    5.670    7.8673
    5.700    7.9621
    5.730    7.6567
    5.760    7.5935
    5.790    7.4566
    5.820    7.7199
    5.850    7.5724
    5.880    8.1095
    5.910    7.7725
    5.940    7.3512
    5.970    7.6883
    6.000    7.6251
    6.030    7.9410
    6.060    7.9831
    6.090    7.8884
    6.120    7.6672
    6.150    7.7830
    6.180    7.8252
    6.210    7.9094
    6.240    8.1411
    6.270    8.0463
    6.300    8.4571
    6.330    9.0890
    6.360    8.8994
    6.390    9.5840
    6.420    9.5313
    6.450    9.4681
    6.480    9.6998
    6.510   10.1738
    6.540   10.9637
    6.570   11.5534
    6.600   11.8905
    6.630   12.5013
    6.660   13.8389
    6.690   14.4708
    6.720   15.9874
    6.750   17.7778
    6.780   19.0521
    6.810   22.2538
    6.840   25.9505
    6.870   28.7941
    6.900   34.1127
    6.930   39.6840
    6.960   44.7077
    6.990   41.9695
    7.020   35.1448
    7.050   24.2549
    7.080   17.2722
    7.110   13.1438
    7.140   10.9110
    7.170   10.3107
    7.200   10.0685
    7.230   10.3002
    7.260    9.4787
    7.290    9.8789
    7.320   10.2054
    7.350   10.3002
    7.380   10.3212
    7.410   10.6793
    7.440   11.4271
    7.470   11.8378
    7.500   12.6593
    7.530   12.9858
    7.560   13.9652
    7.590   14.9236
    7.620   17.4934
    7.650   19.3786
    7.680   20.0948
    7.710   22.8541
    7.740   26.0137
    7.770   30.3844
    7.800   32.4065
    7.830   34.1759
    7.860   34.7551
    7.890   32.2696
    7.920   28.7625
    7.950   25.2238
    7.980   21.2849
    8.010   17.8620
    8.040   15.8189
    8.070   13.7546
    8.100   12.0590
    8.130   10.5003
    8.160    9.6156
    8.190    9.1732
    8.220    8.6993
    8.250    8.3834
    8.280    8.0885
    8.310    8.0463
    8.340    8.0885
    8.370    7.9200
    8.400    8.1201
    8.430    7.7409
    8.460    7.7830
    8.490    7.8462
    8.520    7.4776
    8.550    7.3302
    8.580    7.1617
    8.610    7.2143
    8.640    7.7093
    8.670    7.4039
    8.700    7.5197
    8.730    6.9721
    8.760    6.8773
    8.790    7.0037
    8.820    7.0774
    8.850    7.6356
    8.880    7.3828
    8.910    7.3196
    8.940    7.3302
    8.970    7.1827
    9.000    7.0248
    9.030    7.0774
    9.060    7.3196
    9.090    7.2354
    9.120    7.1933
    9.150    7.3302
    9.180    7.2038
    9.210    7.3407
    9.240    7.0458
    9.270    6.9300
    9.300    7.2880
    9.330    7.0037
    9.360    7.3828
    9.390    7.0774
    9.420    7.2986
    9.450    7.1827
    9.480    7.0985
    9.510    7.4250
    9.540    7.4987
    9.570    7.4039
    9.600    7.6777
    9.630    7.9831
    9.660    7.7093
    9.690    8.0885
    9.720    7.8041
    9.750    7.7830
    9.780    7.6356
    9.810    7.3618
    9.840    7.7620
    9.870    7.1933
    9.900    7.2354
    9.930    7.1617
    9.960    7.1406
    9.990    7.3723