File: data/PXRD/PXRD_KE-116_Cu-Ka1_capillary-1mm_5s-deg.xyd
    1.500   29.1733
    1.635   24.8868
    1.770   23.8020
    1.905   23.0016
    2.040   21.9063
    2.175   22.6540
    2.310   23.1280
    2.445   24.0653
    2.580   25.7715
    2.715   29.4471
    2.850   34.9552
    2.985   42.9173
    3.120   55.8294
    3.255   79.0837
    3.390  123.1490
    3.525   97.6725
    3.660   45.7399
    3.795   49.2996
    3.930   60.3792
    4.065   59.6314
    4.200   40.0105
    4.335   22.4855
    4.470   14.3444
    4.605   10.2475
    4.740    8.9310
    4.875    7.7199
    5.010    7.8146
    5.145    7.0774
    5.280    7.2565
    5.415    6.6877
    5.550    6.3718
    5.685    6.3296
    5.820    6.1085
    5.955    6.7720
    6.090    6.5508
    6.225    7.1511
    6.360    7.2670
    6.495    8.1306
    6.630    8.9415
    6.765   11.5534
    6.900   16.4613
    7.035   13.6704
    7.170    7.9200
    7.305    6.6983
    7.440    7.1722
    7.575    7.3618
    7.710    8.1833
    7.845    9.0679
    7.980   10.1632
    8.115   10.4371
    8.250   10.1738
    8.385    9.5419
    8.520    7.9305
    8.655    7.6145
    8.790    7.0774
    8.925    6.4455
    9.060    6.2559
    9.195    5.9084
    9.330    6.0137
    9.465    5.9821
    9.600    5.6767
    9.735    5.9926
    9.870    5.7083
   10.005    5.4660
   10.140    6.0137
   10.275    5.8873
   10.410    6.4982
   10.545    6.1717
   10.680    5.9610
   10.815    5.3186
   10.950    5.6451
   11.085    5.7715
   11.220    5.6029
   11.355    5.7609
   11.490    6.2243
   11.625    5.7188
   11.760    6.0137
   11.895    6.4139
   12.030    6.2349
   12.165    6.0979
   12.300    6.5929
   12.435    6.4666
   12.570    6.4244
   12.705    6.1085
   12.840    6.4876
   12.975    6.0137
   13.110    6.0348
   13.245    6.1822
   13.380    6.0664
   13.515    5.8662
   13.650    6.1190
   13.785    6.0558
   13.920    5.9400
   14.055    6.1506
   14.190    5.4871
   14.325    5.5398
   14.460    5.7293
   14.595    5.8873
   14.730    5.4976
   14.865    5.4239
   15.000    5.4555
   15.135    5.6029
   15.270    5.6977
   15.405    5.7083
   15.540    5.7504
   15.675    5.5398
   15.810    5.8873
   15.945    5.4344
   16.080    5.8136
   16.215    5.4028
   16.350    5.5187
   16.485    5.5503
   16.620    5.6345
   16.755    5.5187
   16.890    5.5398
   17.025    5.5082
   17.160    5.3186
   17.295    5.5398
   17.430    5.3923
   17.565    5.5187
   17.700    5.2870
   17.835    5.5819
   17.970    5.4239
   18.105    5.7504
   18.240    5.6872
   18.375    5.5503
   18.510    5.5503
   18.645    5.4555
   18.780    5.2659
   18.915    5.8873
   19.050    6.1822
   19.185    5.7504
   19.320    5.8768
   19.455    6.0453
   19.590    6.1295
   19.725    6.1506
   19.860    5.8136
   19.995    6.1190
   20.130    6.2665
   20.265    6.2665
   20.400    6.3718
   20.535    6.2665
   20.670    5.6977
   20.805    5.6977
   20.940    5.9610
   21.075    6.2875
   21.210    6.0874
   21.345    6.4982
   21.480    6.2981
   21.615    5.7399
   21.750    6.5719
   21.885    6.3086
   22.020    6.3823
   22.155    5.9189
   22.290    6.2559
   22.425    6.3296
   22.560    6.2138
   22.695    5.9294
   22.830    5.9610
   22.965    5.8136
   23.100    6.5087
   23.235    6.1611
   23.370    5.6872
   23.505    6.0453
   23.640    6.0348
   23.775    5.9294
   23.910    5.9400
   24.045    5.7188
   24.180    5.9926
   24.315    5.6345
   24.450    5.4028
   24.585    6.2454
   24.720    5.7820
   24.855    5.8557
   24.990    5.2133
   25.125    5.6556
   25.260    5.8031
   25.395    5.5398
   25.530    5.3397
   25.665    5.2975
   25.800    5.7609
   25.935    4.9816
   26.070    5.1817
   26.205    5.1501
   26.340    5.1817
   26.475    5.0974
   26.610    5.2659
   26.745    5.3291
   26.880    5.2870
   27.015    5.0237
   27.150    5.1185
   27.285    5.4766
   27.420    4.9394
   27.555    5.2975
   27.690    5.0448
   27.825    5.3712
   27.960    6.0348
   28.095    5.8557
   28.230    5.4239
   28.365    5.1501
   28.500    5.1395
   28.635    4.7920
   28.770    5.2659
   28.905    5.3818
   29.040    5.5187
   29.175    5.1606
   29.310    4.7077
   29.445    4.7077
   29.580    4.7815
   29.715    5.1711
   29.850    4.9921
   29.985    4.6972
   30.120    4.7077
   30.255    4.6761
   30.390    5.0026
   30.525    4.9184
   30.660    4.6867
   30.795    4.6340
   30.930    4.7604
   31.065    4.6024
   31.200    4.5287
   31.335    4.4760
   31.470    4.6445
   31.605    4.9289
   31.740    5.3712
   31.875    5.1395
   32.010    5.4344
   32.145    5.9400
   32.280    4.6130
   32.415    4.5814
   32.550    4.6024
   32.685    4.7288
   32.820    4.4655
   32.955    4.5182
   33.090    4.3602
   33.225    4.2549
   33.360    4.3391
   33.495    4.2865
   33.630    4.4866
   33.765    5.1817
   33.900    4.8447
   34.035    4.5814
   34.170    4.2338
   34.305    4.8552
   34.440    4.2549
   34.575    4.5182
   34.710    3.9705
   34.845    4.4234
   34.980    4.2654
   35.115    4.2233
   35.250    4.1706
   35.385    4.2338
   35.520    4.3707
   35.655    4.0864
   35.790    4.3286
   35.925    4.0126
   36.060    4.4444
   36.195    4.0442
   36.330    3.9705
   36.465    3.8125
   36.600    4.3918
   36.735    4.1811
   36.870    3.9389
   37.005    4.0337
   37.140    3.9494
   37.275    4.2233
   37.410    3.9600
   37.545    3.8757
   37.680    4.1917
   37.815    4.1074
   37.950    4.0653
   38.085    4.1601
   38.220    3.8547
   38.355    3.9389
   38.490    4.3497
   38.625    4.3918
   38.760    4.4234
   38.895    3.8547
   39.030    3.9073
   39.165    4.0653
   39.300    4.1074
   39.435    4.1706
   39.570    3.9705
   39.705    3.7809
   39.840    3.7915
   39.975    4.1180
   39.990    4.2759