File: data/PXRD/PXRD_KE-053-2_Cu-Ka1_capillary-1mm_5s-deg.xyd
    1.500   39.9052
    1.530   39.7051
    1.560   39.1364
    1.590   37.2196
    1.620   36.4508
    1.650   35.4608
    1.680   36.7351
    1.710   34.6077
    1.740   34.6604
    1.770   33.1227
    1.800   33.9547
    1.830   32.5118
    1.860   31.3533
    1.890   31.1006
    1.920   30.5108
    1.950   30.5635
    1.980   30.0579
    2.010   30.9110
    2.040   28.2991
    2.070   28.9415
    2.100   27.7514
    2.130   28.0885
    2.160   27.8989
    2.190   27.0563
    2.220   27.8357
    2.250   27.2459
    2.280   26.2981
    2.310   26.6245
    2.340   27.0669
    2.370   26.2033
    2.400   26.6140
    2.430   26.4982
    2.460   26.1401
    2.490   26.4876
    2.520   25.8452
    2.550   26.0242
    2.580   25.6030
    2.610   26.1190
    2.640   26.5719
    2.670   26.3612
    2.700   26.7193
    2.730   26.2665
    2.760   27.2354
    2.790   26.9510
    2.820   27.8252
    2.850   28.1727
    2.880   28.4571
    2.910   29.2154
    2.940   30.4897
    2.970   30.9321
    3.000   30.9110
    3.030   32.6698
    3.060   33.3755
    3.090   34.6604
    3.120   36.0611
    3.150   37.1037
    3.180   37.5461
    3.210   40.9689
    3.240   40.7267
    3.270   44.3813
    3.300   46.2138
    3.330   49.3523
    3.360   50.4897
    3.390   55.3239
    3.420   57.2933
    3.450   60.6740
    3.480   64.4760
    3.510   68.9205
    3.540   72.8699
    3.570   77.1459
    3.600   85.4344
    3.630   89.7209
    3.660   98.7678
    3.690  107.0353
    3.720  118.4518
    3.750  134.0074
    3.780  150.2896
    3.810  175.0395
    3.840  213.1964
    3.870  279.0837
    3.900  352.1643
    3.930  329.9210
    3.960  184.4023
    3.990   48.3623
    4.020   23.8020
    4.050   17.6935
    4.080   15.9874
    4.110   14.4497
    4.140   13.5966
    4.170   12.8278
    4.200   12.7962
    4.230   12.6172
    4.260   11.6482
    4.290   12.6382
    4.320   11.5956
    4.350   11.4271
    4.380   10.9321
    4.410   11.3428
    4.440   11.2270
    4.470   10.6056
    4.500   10.6056
    4.530   11.0900
    4.560   11.1848
    4.590   11.0690
    4.620   11.2270
    4.650   11.3007
    4.680   11.5850
    4.710   11.2902
    4.740   11.6482
    4.770   12.1011
    4.800   11.9431
    4.830   11.9958
    4.860   12.1959
    4.890   12.1116
    4.920   13.5334
    4.950   13.8705
    4.980   14.1338
    5.010   14.1022
    5.040   14.4392
    5.070   15.3133
    5.100   15.7451
    5.130   16.1137
    5.160   17.2196
    5.190   17.8620
    5.220   19.3892
    5.250   20.4213
    5.280   22.8647
    5.310   24.1917
    5.340   26.6561
    5.370   29.9631
    5.400   32.3644
    5.430   36.6719
    5.460   46.5087
    5.490   57.8515
    5.520   72.8383
    5.550   70.8794
    5.580   44.8763
    5.610   16.8720
    5.640   10.8794
    5.670    9.6682
    5.700    9.4471
    5.730    8.8468
    5.760    9.0890
    5.790    8.4992
    5.820    8.5413
    5.850    8.5624
    5.880    8.5624
    5.910    8.5835
    5.940    8.9942
    5.970    8.8784
    6.000    8.3623
    6.030    8.6783
    6.060    8.4150
    6.090    8.6888
    6.120    8.5729
    6.150    8.9626
    6.180    8.9310
    6.210    8.7730
    6.240    8.7730
    6.270    8.7520
    6.300    8.7730
    6.330    9.1627
    6.360    9.3418
    6.390    9.4365
    6.420    9.3418
    6.450    9.7314
    6.480    9.8999
    6.510   10.2791
    6.540   10.5529
    6.570   11.1532
    6.600   11.9221
    6.630   12.2064
    6.660   13.2070
    6.690   14.7973
    6.720   16.8720
    6.750   20.7583
    6.780   22.5276
    6.810   19.9895
    6.840   12.8489
    6.870    8.7941
    6.900    8.2464
    6.930    8.4676
    6.960    7.6883
    6.990    8.4150
    7.020    8.2149
    7.050    7.9094
    7.080    8.0779
    7.110    8.1095
    7.140    8.2464
    7.170    8.1833
    7.200    8.0990
    7.230    7.9410
    7.260    7.8357
    7.290    8.2464
    7.320    7.8146
    7.350    7.7093
    7.380    8.7204
    7.410    8.5097
    7.440    8.3412
    7.470    8.5940
    7.500    9.3944
    7.530    9.5419
    7.560    9.4997
    7.590   10.4160
    7.620   10.6266
    7.650   11.3744
    7.680   11.8799
    7.710   13.3333
    7.740   14.6919
    7.770   17.9358
    7.800   20.5898
    7.830   22.6646
    7.860   20.8110
    7.890   12.6382
    7.920    8.5835
    7.950    7.7620
    7.980    7.6356
    8.010    7.3512
    8.040    7.8673
    8.070    7.2459
    8.100    7.4250
    8.130    7.0774
    8.160    7.2880
    8.190    6.9932
    8.220    7.2565
    8.250    7.6883
    8.280    7.3302
    8.310    7.2038
    8.340    7.3723
    8.370    7.2249
    8.400    7.3934
    8.430    7.7409
    8.460    7.9410
    8.490    7.4987
    8.520    7.6356
    8.550    7.1827
    8.580    7.7093
    8.610    7.5303
    8.640    7.7830
    8.670    8.0042
    8.700    8.2886
    8.730    8.4571
    8.760    8.6045
    8.790    8.5413
    8.820    8.1517
    8.850    7.2354
    8.880    7.2354
    8.910    7.4460
    8.940    7.1617
    8.970    7.1827
    9.000    7.5935
    9.030    7.4566
    9.060    7.6040
    9.090    7.7409
    9.120    7.9831
    9.150    8.2254
    9.180    8.6361
    9.210    8.4781
    9.240    9.0785
    9.270   10.0474
    9.300   10.5108
    9.330   11.0795
    9.360   11.3955
    9.390   12.9753
    9.420   14.2496
    9.450   15.1343
    9.480   18.6835
    9.510   21.9168
    9.540   27.6567
    9.570   35.0395
    9.600   39.8842
    9.630   31.7957
    9.660   17.6093
    9.690    9.1943
    9.720    7.8357
    9.750    7.4039
    9.780    7.2459
    9.810    6.9194
    9.840    7.4882
    9.870    7.2670
    9.900    7.2775
    9.930    7.1301
    9.960    7.4566
    9.990    7.2670