File: data/PXRD/PXRD_KE-159_Cu-Ka1_film-3mm_5s-deg.xyd
    1.500   12.4276
    1.635   11.3323
    1.770   10.2475
    1.905    9.1627
    2.040    8.4781
    2.175    8.0042
    2.310    7.7936
    2.445    7.1406
    2.580    7.0669
    2.715    6.8036
    2.850    6.1822
    2.985    5.8873
    3.120    6.0874
    3.255    6.1401
    3.390    5.7609
    3.525    5.8452
    3.660    5.6977
    3.795    5.8031
    3.930    5.8557
    4.065    5.2133
    4.200    5.8768
    4.335    5.3712
    4.470    5.6029
    4.605    5.3397
    4.740    5.7925
    4.875    5.6872
    5.010    6.5192
    5.145    6.4876
    5.280    6.5824
    5.415    7.1617
    5.550    7.3723
    5.685    6.6561
    5.820    6.6877
    5.955    6.0348
    6.090    5.1711
    6.225    5.0448
    6.360    4.8657
    6.495    4.9500
    6.630    4.9921
    6.765    4.5919
    6.900    4.2443
    7.035    4.4655
    7.170    4.3286
    7.305    3.7599
    7.440    3.9916
    7.575    3.8336
    7.710    3.2965
    7.845    3.5808
    7.980    3.3281
    8.115    3.4018
    8.250    3.2438
    8.385    3.4334
    8.520    3.1385
    8.655    3.1490
    8.790    3.2649
    8.925    3.1596
    9.060    3.1069
    9.195    3.2122
    9.330    3.3281
    9.465    2.9700
    9.600    2.8436
    9.735    2.9910
    9.870    3.1490
   10.005    2.9700
   10.140    2.7488
   10.275    3.0016
   10.410    3.0542
   10.545    3.0332
   10.680    3.3281
   10.815    3.1490
   10.950    3.5071
   11.085    3.0964
   11.220    3.1701
   11.355    3.2859
   11.490    3.3281
   11.625    3.3597
   11.760    3.0121
   11.895    3.0437
   12.030    3.2227
   12.165    3.2333
   12.300    2.9595
   12.435    3.2543
   12.570    3.1806
   12.705    2.9173
   12.840    2.9910
   12.975    2.8752
   13.110    3.0332
   13.245    3.2122
   13.380    3.2438
   13.515    3.1280
   13.650    3.4439
   13.785    2.9068
   13.920    3.0964
   14.055    3.0226
   14.190    3.4650
   14.325    3.5808
   14.460    3.5387
   14.595    3.6019
   14.730    3.3386
   14.865    2.9700
   15.000    2.8963
   15.135    3.0753
   15.270    3.2122
   15.405    2.9805
   15.540    2.9173
   15.675    3.0226
   15.810    2.9489
   15.945    3.0226
   16.080    3.2227
   16.215    3.0542
   16.350    3.3807
   16.485    2.9279
   16.620    3.1069
   16.755    3.0437
   16.890    2.9910
   17.025    2.9805
   17.160    3.1596
   17.295    3.0753
   17.430    3.1490
   17.565    3.2017
   17.700    3.1069
   17.835    3.1280
   17.970    2.7909
   18.105    3.1280
   18.240    2.9068
   18.375    2.7067
   18.510    2.7172
   18.645    3.1069
   18.780    3.0858
   18.915    3.2649
   19.050    3.2017
   19.185    2.9910
   19.320    2.8752
   19.455    2.8541
   19.590    3.0542
   19.725    2.6540
   19.860    2.8541
   19.995    2.8120
   20.130    2.7488
   20.265    2.6856
   20.400    2.7488
   20.535    2.8120
   20.670    2.4750
   20.805    2.7383
   20.940    2.9279
   21.075    2.6435
   21.210    2.7909
   21.345    2.7804
   21.480    2.6962
   21.615    2.7488
   21.750    2.4855
   21.885    2.7383
   22.020    2.3486
   22.155    2.4118
   22.290    2.3802
   22.425    2.5066
   22.560    2.4329
   22.695    2.4434
   22.830    2.3170
   22.965    2.3907
   23.100    2.7067
   23.235    2.2749
   23.370    2.4223
   23.505    2.3170
   23.640    2.3486
   23.775    2.3907
   23.910    2.3065
   24.045    1.8747
   24.180    2.2117
   24.315    2.2012
   24.450    2.0116
   24.585    2.0116
   24.720    1.9063
   24.855    2.2433
   24.990    2.2749
   25.125    1.9484
   25.260    2.0221
   25.395    1.9484
   25.530    2.1380
   25.665    1.8747
   25.800    1.9273
   25.935    1.9800
   26.070    2.0642
   26.205    1.8536
   26.340    2.0642
   26.475    1.9273
   26.610    1.8852
   26.745    1.6956
   26.880    1.7483
   27.015    1.8325
   27.150    1.7062
   27.285    1.7062
   27.420    1.7904
   27.555    1.7799
   27.690    1.7904
   27.825    1.7062
   27.960    2.6751
   28.095    1.6851
   28.230    1.6008
   28.365    1.4745
   28.500    1.6324
   28.635    1.6430
   28.770    1.7272
   28.905    2.0748
   29.040    1.8325
   29.175    1.7272
   29.310    1.6114
   29.445    1.5061
   29.580    1.5692
   29.715    1.4955
   29.850    1.4323
   29.985    1.7904
   30.120    1.3797
   30.255    1.4850
   30.390    1.2954
   30.525    1.3902
   30.660    1.3797
   30.795    1.2954
   30.930    1.3902
   31.065    1.3165
   31.200    1.3165
   31.335    1.4218
   31.470    1.1901
   31.605    1.0111
   31.740    1.6324
   31.875    1.3481
   32.010    1.4955
   32.145    1.8747
   32.280    1.0953
   32.415    1.1058
   32.550    1.1690
   32.685    1.1269
   32.820    1.0637
   32.955    1.1796
   33.090    0.9795
   33.225    0.9373
   33.360    1.0637
   33.495    1.0216
   33.630    1.1374
   33.765    1.6219
   33.900    1.2954
   34.035    1.1901
   34.170    1.0532
   34.305    0.8425
   34.440    0.9479
   34.575    1.1058
   34.710    0.9689
   34.845    1.1690
   34.980    1.0848
   35.115    1.0216
   35.250    0.8636
   35.385    0.9584
   35.520    0.8741
   35.655    1.0321
   35.790    0.9584
   35.925    0.9795
   36.060    1.0216
   36.195    0.9795
   36.330    1.0111
   36.465    0.9373
   36.600    1.0216
   36.735    0.9584
   36.870    1.0321
   37.005    0.9900
   37.140    0.8636
   37.275    0.8847
   37.410    0.8636
   37.545    0.7899
   37.680    1.0005
   37.815    1.0742
   37.950    1.0111
   38.085    0.9900
   38.220    0.8425
   38.355    0.8425
   38.490    0.9163
   38.625    1.1058
   38.760    0.8320
   38.895    0.8215
   39.030    0.9689
   39.165    0.9057
   39.300    0.7794
   39.435    0.9795
   39.570    0.8320
   39.705    0.7372
   39.840    0.7267
   39.975    0.7478
   39.990    0.8636