File: data/PXRD/PXRD_KE-073_Cu-Ka1_capillary-1mm_5s-deg.xyd
    1.500   23.3702
    1.635   22.9910
    1.770   20.4318
    1.905   19.5261
    2.040   18.6940
    2.175   17.9358
    2.310   18.1148
    2.445   17.9884
    2.580   18.2201
    2.715   19.4629
    2.850   21.4639
    2.985   23.4018
    3.120   27.7409
    3.255   33.1964
    3.390   44.8236
    3.525   52.4803
    3.660   72.1116
    3.795  128.1201
    3.930   89.0258
    4.065   15.0079
    4.200   11.0690
    4.335    9.9315
    4.470    9.4576
    4.605    9.1417
    4.740    9.4997
    4.875   10.6793
    5.010   12.2696
    5.145   15.0606
    5.280   20.6530
    5.415   36.4613
    5.550   29.7314
    5.685    7.6777
    5.820    7.2775
    5.955    8.2043
    6.090    7.4776
    6.225    7.5408
    6.360    8.2675
    6.495    9.2364
    6.630   12.1011
    6.765   17.5566
    6.900    7.8041
    7.035    7.5619
    7.170    7.2459
    7.305    7.4776
    7.440    7.6040
    7.575    8.8046
    7.710   12.9647
    7.845   12.5013
    7.980    7.4355
    8.115    7.2249
    8.250    7.0774
    8.385    7.3302
    8.520    7.2459
    8.655    7.8989
    8.790    6.9510
    8.925    6.6983
    9.060    7.1617
    9.195    7.8357
    9.330    9.6156
    9.465   15.6714
    9.600   19.2206
    9.735    6.7509
    9.870    6.8352
   10.005    7.1511
   10.140    7.7936
   10.275   11.7957
   10.410    8.4466
   10.545    6.7299
   10.680    6.8141
   10.815    7.3934
   10.950    9.5313
   11.085   10.9847
   11.220    6.0874
   11.355    6.6245
   11.490    7.6988
   11.625    9.5945
   11.760   10.5951
   11.895    5.6977
   12.030    6.2349
   12.165    6.2875
   12.300    6.6667
   12.435    6.4350
   12.570    6.0979
   12.705    6.2559
   12.840    7.0037
   12.975   10.5108
   13.110    6.3507
   13.245    6.1401
   13.380    5.8031
   13.515    7.7725
   13.650    5.7609
   13.785    6.3718
   13.920    6.2454
   14.055    8.6467
   14.190    6.4560
   14.325    6.1295
   14.460    5.9294
   14.595    5.6767
   14.730    6.2349
   14.865    5.9610
   15.000    5.8241
   15.135    6.7615
   15.270    5.4871
   15.405    5.5398
   15.540    5.6345
   15.675    5.9926
   15.810    5.6556
   15.945    5.8136
   16.080    6.5824
   16.215    6.3402
   16.350    5.6345
   16.485    6.1717
   16.620    6.8773
   16.755    5.8452
   16.890    6.2349
   17.025    7.9410
   17.160    6.8246
   17.295    5.7715
   17.430    6.1927
   17.565    6.3718
   17.700    5.4134
   17.835    5.6872
   17.970    6.4982
   18.105    6.4034
   18.240    5.6345
   18.375    6.8984
   18.510    5.6556
   18.645    5.4660
   18.780    6.2243
   18.915    6.5613
   19.050    6.0558
   19.185    5.5503
   19.320    5.2659
   19.455    5.9926
   19.590    6.7930
   19.725    6.2243
   19.860    5.6345
   19.995    6.1401
   20.130    5.5292
   20.265    6.7299
   20.400    8.1622
   20.535    6.3296
   20.670    5.7504
   20.805    5.6240
   20.940    6.1295
   21.075    6.1190
   21.210    6.0348
   21.345    5.6451
   21.480    5.8347
   21.615    5.9926
   21.750    6.3718
   21.885    6.8984
   22.020    6.1401
   22.155    6.3086
   22.290    6.4666
   22.425    6.1927
   22.560    8.1833
   22.695    7.1722
   22.830    7.1406
   22.965    8.3518
   23.100    6.2875
   23.235    7.0669
   23.370    5.9716
   23.505    6.0664
   23.640    6.0242
   23.775    5.5714
   23.910    7.0142
   24.045    6.2559
   24.180    6.0032
   24.315    6.2349
   24.450    6.0348
   24.585    5.7293
   24.720    6.0769
   24.855    5.9610
   24.990    5.6767
   25.125    5.6451
   25.260    6.2981
   25.395    6.2138
   25.530    5.8873
   25.665    5.8031
   25.800    7.1511
   25.935    6.3823
   26.070    5.6977
   26.205    6.1506
   26.340    5.9400
   26.475    6.2243
   26.610    5.8662
   26.745    5.5082
   26.880    5.3607
   27.015    6.1295
   27.150    5.7820
   27.285    5.6872
   27.420    5.6767
   27.555    6.0032
   27.690    5.9610
   27.825    5.5292
   27.960    6.0453
   28.095    6.5403
   28.230    6.0453
   28.365    6.0453
   28.500    5.9400
   28.635    5.3712
   28.770    5.4028
   28.905    5.6240
   29.040    5.6661
   29.175    5.4871
   29.310    5.4871
   29.445    5.4450
   29.580    5.0869
   29.715    5.3923
   29.850    5.6661
   29.985    5.3081
   30.120    5.0132
   30.255    4.9921
   30.390    5.1395
   30.525    5.5819
   30.660    5.2975
   30.795    4.8236
   30.930    5.0026
   31.065    4.8236
   31.200    4.8025
   31.335    5.2027
   31.470    5.5819
   31.605    5.1501
   31.740    5.2133
   31.875    5.1711
   32.010    5.6345
   32.145    5.5082
   32.280    4.4128
   32.415    4.5182
   32.550    4.6130
   32.685    4.4550
   32.820    4.6340
   32.955    4.6972
   33.090    4.6130
   33.225    4.4866
   33.360    4.5708
   33.495    4.3707
   33.630    4.8447
   33.765    5.4028
   33.900    5.2975
   34.035    4.9605
   34.170    5.0553
   34.305    4.9289
   34.440    4.8341
   34.575    4.6972
   34.710    4.6867
   34.845    4.3918
   34.980    4.7709
   35.115    4.0126
   35.250    4.3918
   35.385    4.5498
   35.520    4.2022
   35.655    4.8657
   35.790    4.5182
   35.925    4.7183
   36.060    4.5708
   36.195    4.4444
   36.330    4.2233
   36.465    4.3602
   36.600    4.6024
   36.735    4.5814
   36.870    4.4550
   37.005    4.3181
   37.140    4.8868
   37.275    4.2022
   37.410    4.3286
   37.545    4.5287
   37.680    4.3707
   37.815    4.4444
   37.950    4.5498
   38.085    4.5392
   38.220    4.2549
   38.355    4.2654
   38.490    4.2127
   38.625    4.4444
   38.760    4.0337
   38.895    4.1917
   39.030    4.1285
   39.165    4.2549
   39.300    4.3075
   39.435    3.9494
   39.570    4.0232
   39.705    4.1285
   39.840    4.6340
   39.975    4.2865
   39.990    4.0653