File: data/PXRD/PXRD_KE-109_Cu-Ka1_capillary-1mm_5s-deg.xyd
    1.500   10.0369
    1.635    9.3207
    1.770    8.2570
    1.905    7.8357
    2.040    6.8562
    2.175    6.7930
    2.310    6.2454
    2.445    5.7293
    2.580    5.9294
    2.715    5.4766
    2.850    5.5924
    2.985    5.3502
    3.120    5.7083
    3.255    5.4555
    3.390    4.7920
    3.525    5.4871
    3.660    5.2238
    3.795    5.0237
    3.930    5.1606
    4.065    5.2133
    4.200    4.9184
    4.335    5.0237
    4.470    4.8447
    4.605    5.3081
    4.740    5.3397
    4.875    4.8763
    5.010    4.8447
    5.145    4.6024
    5.280    4.9710
    5.415    4.7815
    5.550    5.1395
    5.685    5.2133
    5.820    4.5814
    5.955    4.9816
    6.090    4.7604
    6.225    5.0342
    6.360    5.0658
    6.495    5.0342
    6.630    5.2870
    6.765    4.8025
    6.900    4.9184
    7.035    5.0342
    7.170    5.0974
    7.305    5.0869
    7.440    5.2133
    7.575    5.0132
    7.710    5.3397
    7.845    5.0132
    7.980    5.3502
    8.115    5.2765
    8.250    5.1501
    8.385    5.3081
    8.520    5.3818
    8.655    5.3397
    8.790    5.2659
    8.925    5.2238
    9.060    5.4344
    9.195    5.1922
    9.330    5.6029
    9.465    5.1501
    9.600    4.7920
    9.735    4.9710
    9.870    4.9816
   10.005    5.3712
   10.140    4.8025
   10.275    5.2343
   10.410    5.1501
   10.545    5.1817
   10.680    5.1606
   10.815    4.9289
   10.950    4.7604
   11.085    5.0448
   11.220    5.0553
   11.355    4.8763
   11.490    4.7604
   11.625    4.9816
   11.760    4.9394
   11.895    4.9184
   12.030    5.0026
   12.165    4.6445
   12.300    4.8973
   12.435    4.6130
   12.570    4.6867
   12.705    4.6972
   12.840    4.6235
   12.975    4.7709
   13.110    4.5498
   13.245    4.7604
   13.380    4.8447
   13.515    4.6972
   13.650    4.5498
   13.785    4.6867
   13.920    4.6024
   14.055    4.7183
   14.190    4.4339
   14.325    4.4339
   14.460    4.5919
   14.595    4.7393
   14.730    4.6235
   14.865    4.5919
   15.000    4.4339
   15.135    4.5076
   15.270    4.9921
   15.405    4.9605
   15.540    4.6761
   15.675    4.5603
   15.810    4.7288
   15.945    4.6340
   16.080    4.5603
   16.215    4.8868
   16.350    4.9605
   16.485    4.5919
   16.620    4.7709
   16.755    4.3602
   16.890    4.5287
   17.025    4.9710
   17.160    4.8131
   17.295    4.6551
   17.430    4.8447
   17.565    4.8236
   17.700    5.1606
   17.835    4.9605
   17.970    5.1080
   18.105    5.2765
   18.240    4.5498
   18.375    4.8131
   18.510    4.8025
   18.645    4.9184
   18.780    4.8868
   18.915    4.9394
   19.050    5.4239
   19.185    4.5287
   19.320    4.8552
   19.455    4.9710
   19.590    5.1395
   19.725    5.0553
   19.860    4.7920
   19.995    4.8868
   20.130    4.7709
   20.265    5.2765
   20.400    5.1395
   20.535    4.8341
   20.670    4.7393
   20.805    4.9184
   20.940    4.8868
   21.075    4.9605
   21.210    5.2343
   21.345    4.8447
   21.480    5.1711
   21.615    4.6656
   21.750    4.8973
   21.885    4.8341
   22.020    4.9078
   22.155    5.0342
   22.290    5.3397
   22.425    4.8131
   22.560    4.8552
   22.695    4.5919
   22.830    4.7077
   22.965    4.8552
   23.100    5.0658
   23.235    4.6235
   23.370    5.1395
   23.505    4.7393
   23.640    4.4866
   23.775    4.6972
   23.910    4.6551
   24.045    4.7709
   24.180    4.8552
   24.315    4.5603
   24.450    4.4971
   24.585    4.5919
   24.720    4.5708
   24.855    4.9605
   24.990    4.6656
   25.125    4.7499
   25.260    4.3602
   25.395    4.2970
   25.530    4.6340
   25.665    4.4234
   25.800    4.5076
   25.935    4.6867
   26.070    4.5919
   26.205    4.6024
   26.340    4.2233
   26.475    4.4339
   26.610    4.5498
   26.745    4.4550
   26.880    4.6972
   27.015    4.3707
   27.150    4.2654
   27.285    4.6867
   27.420    4.4550
   27.555    4.6340
   27.690    4.3602
   27.825    4.4444
   27.960    4.7499
   28.095    4.2654
   28.230    4.3391
   28.365    4.2233
   28.500    4.2759
   28.635    4.4550
   28.770    4.0548
   28.905    4.3813
   29.040    4.3813
   29.175    4.0442
   29.310    4.0758
   29.445    4.0653
   29.580    4.2022
   29.715    3.7283
   29.850    4.1180
   29.985    4.0969
   30.120    3.9810
   30.255    3.7915
   30.390    3.8336
   30.525    4.0864
   30.660    4.0232
   30.795    3.5492
   30.930    4.0758
   31.065    4.0758
   31.200    3.9073
   31.335    3.7915
   31.470    4.0864
   31.605    3.8652
   31.740    3.9179
   31.875    3.8441
   32.010    4.1285
   32.145    4.2759
   32.280    3.5703
   32.415    4.0337
   32.550    3.6651
   32.685    3.5492
   32.820    3.6967
   32.955    3.4439
   33.090    3.9494
   33.225    3.6440
   33.360    3.3913
   33.495    3.7072
   33.630    3.5071
   33.765    3.8336
   33.900    3.9284
   34.035    3.2649
   34.170    3.3807
   34.305    3.4439
   34.440    3.2122
   34.575    3.7493
   34.710    3.3070
   34.845    3.2859
   34.980    3.2754
   35.115    3.4439
   35.250    3.2438
   35.385    3.5282
   35.520    3.2227
   35.655    3.4439
   35.790    3.2017
   35.925    3.3070
   36.060    3.1701
   36.195    3.3281
   36.330    3.3491
   36.465    2.9805
   36.600    2.9910
   36.735    3.1385
   36.870    3.3070
   37.005    3.3281
   37.140    3.2543
   37.275    3.2965
   37.410    3.2965
   37.545    3.1280
   37.680    3.2438
   37.815    3.4439
   37.950    3.2227
   38.085    3.1701
   38.220    3.0016
   38.355    2.8752
   38.490    3.2017
   38.625    3.4123
   38.760    3.2017
   38.895    2.9384
   39.030    3.2122
   39.165    2.8015
   39.300    3.0753
   39.435    3.3281
   39.570    3.0332
   39.705    3.1069
   39.840    3.3807
   39.975    3.1701
   39.990    3.3175