File: data/PXRD/PXRD_KE-174c_Cu-Ka1_capillary-1mm_5s-deg.xyd
    1.500   26.8984
    1.545   26.5508
    1.590   26.0874
    1.635   24.8236
    1.680   24.4023
    1.725   23.6019
    1.770   23.9494
    1.815   22.6751
    1.860   22.5276
    1.905   22.6540
    1.950   21.3165
    1.995   21.5798
    2.040   21.3691
    2.085   21.5271
    2.130   21.3902
    2.175   21.3586
    2.220   21.4218
    2.265   21.3586
    2.310   21.7378
    2.355   22.4961
    2.400   23.0016
    2.445   23.7177
    2.490   23.9073
    2.535   25.5292
    2.580   25.1817
    2.625   26.8246
    2.670   28.4360
    2.715   29.7946
    2.760   30.9321
    2.805   32.8594
    2.850   35.4081
    2.895   37.5566
    2.940   40.6530
    2.985   43.2333
    3.030   46.4455
    3.075   51.1532
    3.120   57.2301
    3.165   61.9168
    3.210   71.3007
    3.255   79.0837
    3.300   90.5845
    3.345  107.1090
    3.390  126.4876
    3.435  144.7288
    3.480  146.3191
    3.525  120.6846
    3.570   82.9279
    3.615   62.2854
    3.660   55.3555
    3.705   52.8067
    3.750   53.7230
    3.795   55.8189
    3.840   57.1564
    3.885   60.0948
    3.930   59.5998
    3.975   59.3892
    4.020   57.8199
    4.065   52.1854
    4.110   50.0895
    4.155   42.4855
    4.200   37.7251
    4.245   31.5956
    4.290   26.6983
    4.335   22.0116
    4.380   19.4839
    4.425   17.2407
    4.470   15.1869
    4.515   13.2701
    4.560   12.4908
    4.605   11.8589
    4.650   11.1743
    4.695   10.2686
    4.740    9.9315
    4.785    9.8157
    4.830    8.8784
    4.875    8.9731
    4.920    8.8046
    4.965    9.0153
    5.010    8.9731
    5.055    8.5729
    5.100    7.8884
    5.145    7.8778
    5.190    7.6988
    5.235    7.6883
    5.280    7.6461
    5.325    7.6251
    5.370    7.1090
    5.415    7.3723
    5.460    6.8457
    5.505    6.9510
    5.550    6.9089
    5.595    6.7088
    5.640    6.9932
    5.685    6.9194
    5.730    7.1827
    5.775    7.2459
    5.820    6.8352
    5.865    6.4350
    5.910    6.3507
    5.955    6.8141
    6.000    6.6351
    6.045    7.0879
    6.090    6.7615
    6.135    6.8036
    6.180    7.0563
    6.225    7.0248
    6.270    6.8457
    6.315    7.4460
    6.360    7.2565
    6.405    7.9726
    6.450    7.3407
    6.495    7.9200
    6.540    8.1727
    6.585    8.9731
    6.630    9.1417
    6.675    9.4471
    6.720   10.5424
    6.765   11.5745
    6.810   12.8489
    6.855   14.4286
    6.900   16.8404
    6.945   18.7783
    6.990   18.8520
    7.035   16.0716
    7.080   12.1643
    7.125   10.1422
    7.170    8.7625
    7.215    8.4781
    7.260    8.3412
    7.305    8.0569
    7.350    8.2570
    7.395    7.6145
    7.440    8.0147
    7.485    8.5413
    7.530    8.5624
    7.575    8.6256
    7.620    8.7309
    7.665    9.0679
    7.710    9.0890
    7.755    9.2470
    7.800    9.7630
    7.845    9.8894
    7.890   10.5003
    7.935   10.4687
    7.980   10.3212
    8.025   10.4055
    8.070   10.4265
    8.115   10.5740
    8.160   10.7846
    8.205   10.3212
    8.250    9.9526
    8.295   10.1948
    8.340    9.5629
    8.385    9.1732
    8.430    9.2364
    8.475    8.5940
    8.520    8.1411
    8.565    8.4150
    8.610    7.8673
    8.655    7.6356
    8.700    7.6883
    8.745    7.1827
    8.790    7.1301
    8.835    7.2143
    8.880    6.9405
    8.925    6.5719
    8.970    6.7720
    9.015    6.3612
    9.060    6.8878
    9.105    6.8984
    9.150    6.7615
    9.195    6.3718
    9.240    6.7404
    9.285    6.5613
    9.330    6.2454
    9.375    6.7088
    9.420    6.2875
    9.465    6.2981
    9.510    6.1822
    9.555    6.3402
    9.600    6.1506
    9.645    6.6456
    9.690    6.3086
    9.735    6.3086
    9.780    5.8557
    9.825    5.9926
    9.870    6.1190
    9.915    6.4139
    9.960    6.3402
   10.005    5.8662
   10.050    5.9926
   10.095    6.4139
   10.140    6.3928
   10.185    6.5192
   10.230    6.4666
   10.275    6.4139
   10.320    6.8562
   10.365    6.6140
   10.410    6.8562
   10.455    6.9826
   10.500    6.7509
   10.545    6.5719
   10.590    6.4560
   10.635    6.2875
   10.680    6.6140
   10.725    6.4034
   10.770    6.1717
   10.815    6.2033
   10.860    5.8978
   10.905    6.0242
   10.950    6.3402
   10.995    6.4034
   11.040    6.0453
   11.085    6.5192
   11.130    6.3086
   11.175    6.2349
   11.220    5.8978
   11.265    6.2243
   11.310    6.0664
   11.355    6.5613
   11.400    6.3086
   11.445    6.6877
   11.490    6.0242
   11.535    6.0979
   11.580    6.5403
   11.625    6.4244
   11.670    6.3612
   11.715    6.6351
   11.760    6.6667
   11.805    6.8246
   11.850    6.9300
   11.895    6.8141
   11.940    6.7825
   11.985    6.8773
   12.030    6.7615
   12.075    6.7299
   12.120    6.7720
   12.165    6.7193
   12.210    6.4350
   12.255    7.1827
   12.300    6.7088
   12.345    7.1301
   12.390    6.7930
   12.435    6.6772
   12.480    6.5929
   12.525    6.6035
   12.570    6.4244
   12.615    6.7404
   12.660    6.9932
   12.705    6.4876
   12.750    7.2354
   12.795    6.2981
   12.840    6.6877
   12.885    6.5403
   12.930    6.6877
   12.975    6.7088
   13.020    6.2875
   13.065    6.6561
   13.110    6.4139
   13.155    6.4244
   13.200    6.4771
   13.245    6.4244
   13.290    6.4350
   13.335    6.8036
   13.380    6.3507
   13.425    6.7509
   13.470    6.8036
   13.515    6.4244
   13.560    6.6351
   13.605    6.3718
   13.650    6.5824
   13.695    6.4560
   13.740    6.3612
   13.785    6.2243
   13.830    6.1717
   13.875    6.5087
   13.920    6.5087
   13.965    6.5192
   14.010    5.9505
   14.055    5.9716
   14.100    6.4350
   14.145    6.2981
   14.190    5.8978
   14.235    6.2770
   14.280    6.5298
   14.325    6.3823
   14.370    6.3718
   14.415    6.0979
   14.460    6.1822
   14.505    6.1506
   14.550    6.1822
   14.595    6.4666
   14.640    5.9926
   14.685    6.1401
   14.730    6.3612
   14.775    6.3086
   14.820    5.9084
   14.865    6.3402
   14.910    6.4876
   14.955    6.0242
   14.985    6.1506