File: data/PXRD/PXRD_KE-048_Cu-Ka1_capillary-1mm_5s-deg.xyd
    1.500   24.8341
    1.635   23.7599
    1.770   22.7067
    1.905   22.5487
    2.040   22.5803
    2.175   24.3813
    2.310   25.5819
    2.445   29.4471
    2.580   33.3333
    2.715   40.3686
    2.850   49.3734
    2.985   61.0743
    3.120   79.4313
    3.255  111.9537
    3.390  180.3686
    3.525  205.0553
    3.660   92.7330
    3.795  135.8504
    3.930  198.8204
    4.065   45.8452
    4.200   17.2407
    4.335   11.7536
    4.470   10.3423
    4.605    9.5524
    4.740    9.0047
    4.875    9.5945
    5.010   10.0474
    5.145   11.1427
    5.280   12.6804
    5.415   16.0716
    5.550   26.6667
    5.685    7.8884
    5.820    7.7093
    5.955    8.1517
    6.090    8.0569
    6.225    8.5203
    6.360    9.5419
    6.495   11.1216
    6.630   15.4608
    6.765   23.8757
    6.900   34.3549
    7.035   29.2048
    7.170   10.6056
    7.305   10.6161
    7.440   12.0274
    7.575   16.1559
    7.710   25.5924
    7.845   38.9258
    7.980   22.0537
    8.115   11.1427
    8.250    8.7625
    8.385    7.3618
    8.520    7.7093
    8.655    7.2775
    8.790    7.1617
    8.925    6.9300
    9.060    6.9089
    9.195    7.1195
    9.330    7.8146
    9.465    9.7209
    9.600   16.0927
    9.735    6.8457
    9.870    7.4460
   10.005    6.9510
   10.140    7.7514
   10.275    8.1727
   10.410    9.2154
   10.545    7.2880
   10.680    7.4144
   10.815    7.1722
   10.950    7.8989
   11.085    9.8157
   11.220    7.4460
   11.355    7.6356
   11.490    8.1938
   11.625    9.8789
   11.760   12.1959
   11.895    9.3628
   12.030    7.9200
   12.165    7.5092
   12.300    7.9094
   12.435    7.4250
   12.570    7.4671
   12.705    7.2880
   12.840    7.5935
   12.975    8.8573
   13.110    8.1095
   13.245    7.9937
   13.380    7.6461
   13.515    7.9305
   13.650    7.3828
   13.785    6.8457
   13.920    7.2565
   14.055    7.8357
   14.190    7.5303
   14.325    7.2143
   14.460    7.1195
   14.595    7.1301
   14.730    7.0985
   14.865    7.1301
   15.000    7.2459
   15.135    7.6145
   15.270    7.3407
   15.405    7.6777
   15.540    7.5935
   15.675    8.0253
   15.810    7.2143
   15.945    7.5197
   16.080    7.1722
   16.215    7.0142
   16.350    7.3618
   16.485    7.2249
   16.620    6.7509
   16.755    6.4982
   16.890    7.0142
   17.025    7.2775
   17.160    7.6777
   17.295    7.3196
   17.430    7.6883
   17.565    8.0674
   17.700    7.5303
   17.835    7.6040
   17.970    7.5408
   18.105    7.2880
   18.240    7.5619
   18.375    7.4460
   18.510    7.1722
   18.645    7.1301
   18.780    7.4250
   18.915    7.1722
   19.050    7.1617
   19.185    7.2249
   19.320    7.1195
   19.455    7.3196
   19.590    8.1411
   19.725    7.8673
   19.860    8.3939
   19.995    8.2149
   20.130    8.5519
   20.265    8.6467
   20.400    9.6472
   20.535    8.8573
   20.670    8.5835
   20.805    8.2149
   20.940    8.5519
   21.075    9.0469
   21.210    8.5519
   21.345    8.6045
   21.480    8.0885
   21.615    7.8673
   21.750    8.4255
   21.885    8.3834
   22.020    8.3307
   22.155    8.6572
   22.290    8.9731
   22.425    8.7204
   22.560    9.6682
   22.695    9.1943
   22.830    9.2470
   22.965    9.3102
   23.100    7.9621
   23.235    7.9937
   23.370    7.2986
   23.505    7.5303
   23.640    7.8989
   23.775    7.5408
   23.910    7.9305
   24.045    7.9410
   24.180    7.9200
   24.315    8.2359
   24.450    7.6777
   24.585    8.6677
   24.720    8.1622
   24.855    8.1517
   24.990    7.6883
   25.125    7.5619
   25.260    7.2986
   25.395    7.3091
   25.530    7.1301
   25.665    7.2249
   25.800    7.8252
   25.935    6.9510
   26.070    6.7509
   26.205    7.2775
   26.340    7.5197
   26.475    7.3196
   26.610    7.0563
   26.745    7.2354
   26.880    6.6561
   27.015    7.3512
   27.150    6.8984
   27.285    7.3091
   27.420    7.0879
   27.555    7.1617
   27.690    7.0458
   27.825    7.1090
   27.960    6.8984
   28.095    7.0879
   28.230    7.5408
   28.365    6.6245
   28.500    7.0879
   28.635    6.5403
   28.770    6.9510
   28.905    6.6351
   29.040    6.9932
   29.175    6.5824
   29.310    7.1090
   29.445    6.4771
   29.580    6.4350
   29.715    6.3296
   29.850    6.8246
   29.985    6.2559
   30.120    6.6456
   30.255    6.5929
   30.390    6.3402
   30.525    6.3718
   30.660    6.2981
   30.795    6.2770
   30.930    6.2243
   31.065    6.5087
   31.200    6.2138
   31.335    6.4350
   31.470    6.2981
   31.605    6.4034
   31.740    6.5087
   31.875    6.5403
   32.010    6.7193
   32.145    6.2559
   32.280    6.4982
   32.415    6.6351
   32.550    6.1190
   32.685    6.3507
   32.820    6.1506
   32.955    6.1611
   33.090    6.0979
   33.225    5.9821
   33.360    6.0874
   33.495    5.8136
   33.630    6.0979
   33.765    6.1190
   33.900    6.4560
   34.035    6.0453
   34.170    6.2243
   34.305    5.8557
   34.440    5.9926
   34.575    5.6240
   34.710    5.7083
   34.845    5.8136
   34.980    5.9926
   35.115    5.5292
   35.250    5.8241
   35.385    5.6767
   35.520    5.7504
   35.655    6.0032
   35.790    5.7083
   35.925    5.7504
   36.060    5.5714
   36.195    5.6977
   36.330    5.8031
   36.465    5.2975
   36.600    5.8662
   36.735    5.4028
   36.870    5.4028
   37.005    5.6556
   37.140    5.3818
   37.275    5.2238
   37.410    5.6029
   37.545    5.2659
   37.680    5.5187
   37.815    5.5082
   37.950    5.6451
   38.085    5.3818
   38.220    5.1606
   38.355    5.3712
   38.490    5.5187
   38.625    5.6872
   38.760    4.9394
   38.895    5.5292
   39.030    5.5924
   39.165    5.1080
   39.300    5.5187
   39.435    5.4555
   39.570    5.6661
   39.705    5.5082
   39.840    5.6345
   39.975    5.6451
   39.990    5.1606