File: data/PXRD/PXRD_KE-028_Cu-Ka1_capillary-1mm_5s-deg.xyd
    1.500    9.4892
    1.635    8.4887
    1.770    7.5619
    1.905    6.7825
    2.040    6.4876
    2.175    6.4666
    2.310    6.3296
    2.445    6.3402
    2.580    6.1822
    2.715    6.3086
    2.850    6.3612
    2.985    6.5929
    3.120    7.3302
    3.255    8.7730
    3.390   10.3423
    3.525   13.7651
    3.660   12.4171
    3.795    9.8578
    3.930    8.2149
    4.065    7.4987
    4.200    6.7299
    4.335    6.8668
    4.470    6.5929
    4.605    6.4139
    4.740    6.2770
    4.875    6.3402
    5.010    6.6877
    5.145    6.4034
    5.280    6.2033
    5.415    6.1401
    5.550    6.1717
    5.685    5.6872
    5.820    5.5819
    5.955    5.7083
    6.090    5.2659
    6.225    5.0974
    6.360    4.8973
    6.495    4.8657
    6.630    5.2238
    6.765    5.4871
    6.900    5.6345
    7.035    5.8662
    7.170    5.9716
    7.305    5.7188
    7.440    4.9921
    7.575    4.4023
    7.710    4.2338
    7.845    3.9600
    7.980    3.8652
    8.115    4.1601
    8.250    3.9389
    8.385    3.6546
    8.520    3.7283
    8.655    3.6124
    8.790    4.0021
    8.925    3.6440
    9.060    3.7704
    9.195    3.7915
    9.330    3.5598
    9.465    3.3807
    9.600    3.4544
    9.735    3.7283
    9.870    3.7493
   10.005    3.6230
   10.140    3.2438
   10.275    3.4860
   10.410    3.6862
   10.545    3.6967
   10.680    3.7809
   10.815    3.6651
   10.950    3.5492
   11.085    3.7599
   11.220    3.7283
   11.355    3.6440
   11.490    3.4439
   11.625    3.9284
   11.760    3.7704
   11.895    3.6546
   12.030    3.9179
   12.165    3.7493
   12.300    3.3281
   12.435    3.8336
   12.570    3.3597
   12.705    3.7704
   12.840    3.2649
   12.975    3.1806
   13.110    3.4229
   13.245    3.4544
   13.380    3.6124
   13.515    3.3597
   13.650    3.5176
   13.785    3.2122
   13.920    3.5176
   14.055    3.4018
   14.190    3.4544
   14.325    3.6967
   14.460    3.3070
   14.595    4.0969
   14.730    3.4334
   14.865    3.7177
   15.000    3.3175
   15.135    3.8547
   15.270    3.6440
   15.405    3.6651
   15.540    3.4544
   15.675    3.8231
   15.810    3.7072
   15.945    3.8547
   16.080    3.6124
   16.215    3.6019
   16.350    3.6967
   16.485    3.5071
   16.620    3.6862
   16.755    3.8231
   16.890    3.8441
   17.025    4.0232
   17.160    3.5914
   17.295    3.7809
   17.430    4.0126
   17.565    4.0232
   17.700    4.0337
   17.835    4.1074
   17.970    4.2443
   18.105    4.0337
   18.240    4.5603
   18.375    3.8441
   18.510    4.2338
   18.645    4.2233
   18.780    4.2127
   18.915    4.3918
   19.050    4.3813
   19.185    4.2338
   19.320    4.1180
   19.455    4.3075
   19.590    4.0653
   19.725    3.9705
   19.860    3.7283
   19.995    4.0126
   20.130    4.0442
   20.265    4.0442
   20.400    3.9284
   20.535    4.0969
   20.670    4.1496
   20.805    3.9600
   20.940    4.1601
   21.075    3.8336
   21.210    3.9073
   21.345    4.3707
   21.480    3.7493
   21.615    4.0969
   21.750    3.9284
   21.885    4.0232
   22.020    4.0548
   22.155    4.1285
   22.290    4.1074
   22.425    4.1180
   22.560    4.0337
   22.695    3.7915
   22.830    3.9810
   22.965    3.7177
   23.100    4.1285
   23.235    4.0864
   23.370    3.8125
   23.505    3.8020
   23.640    4.1496
   23.775    4.1601
   23.910    4.1180
   24.045    3.5914
   24.180    4.1285
   24.315    3.8125
   24.450    4.0548
   24.585    3.7283
   24.720    3.9073
   24.855    3.5914
   24.990    3.7809
   25.125    3.9389
   25.260    3.3597
   25.395    3.4860
   25.530    3.6440
   25.665    3.8757
   25.800    3.3597
   25.935    3.5703
   26.070    3.5808
   26.205    3.4018
   26.340    3.3070
   26.475    3.6651
   26.610    3.4334
   26.745    3.1912
   26.880    2.9173
   27.015    3.2965
   27.150    3.2333
   27.285    3.2333
   27.420    3.3702
   27.555    2.8331
   27.690    2.9068
   27.825    2.9910
   27.960    3.2438
   28.095    2.9595
   28.230    3.0964
   28.365    2.9700
   28.500    2.7278
   28.635    2.9595
   28.770    2.9910
   28.905    3.0648
   29.040    2.8857
   29.175    3.2543
   29.310    2.9068
   29.445    2.8225
   29.580    3.0121
   29.715    2.6856
   29.850    2.7488
   29.985    2.7909
   30.120    2.8225
   30.255    2.4434
   30.390    2.4223
   30.525    2.7278
   30.660    2.7383
   30.795    2.7067
   30.930    2.6330
   31.065    2.4855
   31.200    2.3170
   31.335    2.3591
   31.470    2.6540
   31.605    2.5276
   31.740    2.5066
   31.875    2.5382
   32.010    2.4223
   32.145    2.2222
   32.280    2.3486
   32.415    2.3170
   32.550    2.3591
   32.685    2.2643
   32.820    2.1696
   32.955    1.9800
   33.090    2.1274
   33.225    2.2117
   33.360    2.1064
   33.495    2.1380
   33.630    2.1064
   33.765    2.1906
   33.900    1.9589
   34.035    2.0748
   34.170    2.0432
   34.305    1.9695
   34.440    1.8536
   34.575    2.2222
   34.710    1.8009
   34.845    1.8009
   34.980    1.8957
   35.115    1.9905
   35.250    1.8325
   35.385    1.7062
   35.520    1.8009
   35.655    1.8009
   35.790    1.6430
   35.925    1.5798
   36.060    1.7904
   36.195    1.4639
   36.330    1.4639
   36.465    1.6114
   36.600    1.5903
   36.735    1.4955
   36.870    1.5903
   37.005    1.5798
   37.140    1.6324
   37.275    1.4113
   37.410    1.3902
   37.545    1.5377
   37.680    1.4745
   37.815    1.5587
   37.950    1.4323
   38.085    1.5271
   38.220    1.3060
   38.355    1.5166
   38.490    1.6746
   38.625    1.4429
   38.760    1.4534
   38.895    1.4113
   39.030    1.4850
   39.165    1.5061
   39.300    1.6008
   39.435    1.2744
   39.570    1.3691
   39.705    1.4323
   39.840    1.3060
   39.975    1.3691
   39.990    1.2849