File: data/PXRD/PXRD_KE-134_Cu-Ka1_capillary-1mm_5s-deg.xyd
    1.500   70.2370
    1.635   61.2638
    1.770   52.3644
    1.905   45.5082
    2.040   40.9584
    2.175   34.3339
    2.310   30.2686
    2.445   27.1511
    2.580   25.2975
    2.715   24.0337
    2.850   20.9163
    2.985   19.8631
    3.120   18.0411
    3.255   17.6514
    3.390   15.6925
    3.525   15.8399
    3.660   14.4708
    3.795   14.3971
    3.930   13.3544
    4.065   13.5440
    4.200   12.1854
    4.335   11.9010
    4.470   11.0269
    4.605   10.8689
    4.740   10.5740
    4.875   10.3423
    5.010    9.4892
    5.145    9.1838
    5.280    9.1101
    5.415    8.8046
    5.550    8.9205
    5.685    8.9205
    5.820    9.1943
    5.955    8.4150
    6.090    8.2675
    6.225    8.0674
    6.360    8.3834
    6.495    8.1095
    6.630    8.3202
    6.765    8.1306
    6.900    7.9516
    7.035    8.1833
    7.170    8.2254
    7.305    8.3623
    7.440    8.6783
    7.575    8.2780
    7.710    8.4150
    7.845    8.9626
    7.980    8.2886
    8.115    8.6677
    8.250    8.0358
    8.385    8.1306
    8.520    7.8568
    8.655    7.6988
    8.790    8.0674
    8.925    7.5303
    9.060    7.6883
    9.195    7.8357
    9.330    7.1722
    9.465    7.1301
    9.600    6.9405
    9.735    7.2143
    9.870    6.6772
   10.005    6.8668
   10.140    7.0458
   10.275    6.7930
   10.410    6.6351
   10.545    7.0458
   10.680    6.8352
   10.815    6.7825
   10.950    6.1717
   11.085    6.2033
   11.220    6.7404
   11.355    6.6877
   11.490    6.0558
   11.625    6.3086
   11.760    6.0874
   11.895    6.4771
   12.030    6.2349
   12.165    5.6451
   12.300    5.8768
   12.435    5.7293
   12.570    5.5503
   12.705    5.3818
   12.840    5.5714
   12.975    5.8978
   13.110    5.6135
   13.245    5.4028
   13.380    5.7399
   13.515    5.4555
   13.650    5.9294
   13.785    5.8662
   13.920    5.9505
   14.055    5.6661
   14.190    5.8241
   14.325    5.6451
   14.460    5.8662
   14.595    5.7504
   14.730    5.8031
   14.865    6.0769
   15.000    6.2665
   15.135    5.7820
   15.270    5.8873
   15.405    5.6872
   15.540    5.8978
   15.675    5.8347
   15.810    5.9610
   15.945    5.8768
   16.080    6.4244
   16.215    5.9505
   16.350    5.9400
   16.485    6.1822
   16.620    5.7609
   16.755    6.2454
   16.890    6.2981
   17.025    6.0664
   17.160    6.2559
   17.295    5.9821
   17.430    6.0558
   17.565    6.2033
   17.700    6.3823
   17.835    5.8136
   17.970    5.9505
   18.105    6.4560
   18.240    6.4876
   18.375    6.6035
   18.510    6.4350
   18.645    6.3402
   18.780    6.1190
   18.915    6.7299
   19.050    6.9089
   19.185    6.4455
   19.320    6.3928
   19.455    6.7088
   19.590    5.8978
   19.725    6.5508
   19.860    6.8773
   19.995    6.6140
   20.130    6.8562
   20.265    6.1190
   20.400    6.1401
   20.535    6.4139
   20.670    6.6456
   20.805    6.4034
   20.940    6.3612
   21.075    6.2770
   21.210    6.4560
   21.345    6.1506
   21.480    6.4771
   21.615    6.6245
   21.750    6.7404
   21.885    6.0769
   22.020    6.4350
   22.155    6.1506
   22.290    6.3612
   22.425    5.9400
   22.560    6.8668
   22.695    5.9821
   22.830    6.0453
   22.965    6.2981
   23.100    6.0032
   23.235    5.3818
   23.370    5.6029
   23.505    5.7609
   23.640    5.9505
   23.775    5.5082
   23.910    5.5819
   24.045    5.3186
   24.180    5.5082
   24.315    5.5398
   24.450    5.6029
   24.585    5.2765
   24.720    5.5082
   24.855    4.7709
   24.990    5.0974
   25.125    5.0658
   25.260    4.9078
   25.395    5.4976
   25.530    5.4239
   25.665    4.9394
   25.800    4.8236
   25.935    4.8973
   26.070    4.8763
   26.205    4.8447
   26.340    4.7499
   26.475    4.6656
   26.610    4.6761
   26.745    4.5814
   26.880    4.2443
   27.015    4.7815
   27.150    4.4655
   27.285    4.2443
   27.420    4.5392
   27.555    4.3918
   27.690    4.4023
   27.825    4.2759
   27.960    4.7815
   28.095    4.5919
   28.230    4.1706
   28.365    4.0864
   28.500    4.0232
   28.635    4.2022
   28.770    4.1285
   28.905    4.4866
   29.040    4.3813
   29.175    3.7915
   29.310    3.5598
   29.445    3.8547
   29.580    3.5914
   29.715    3.8231
   29.850    3.8441
   29.985    3.8757
   30.120    3.5914
   30.255    3.3702
   30.390    3.6124
   30.525    3.6230
   30.660    3.3807
   30.795    3.5071
   30.930    3.2017
   31.065    3.4123
   31.200    3.1280
   31.335    3.2543
   31.470    3.4229
   31.605    3.4018
   31.740    3.5492
   31.875    3.8231
   32.010    3.7809
   32.145    4.2338
   32.280    3.1806
   32.415    2.9489
   32.550    3.2649
   32.685    2.9279
   32.820    2.7909
   32.955    3.0437
   33.090    2.5698
   33.225    3.1490
   33.360    3.1280
   33.495    2.6751
   33.630    2.7172
   33.765    3.3386
   33.900    3.0542
   34.035    2.9173
   34.170    2.9910
   34.305    2.6435
   34.440    2.6435
   34.575    2.6751
   34.710    2.9384
   34.845    2.7278
   34.980    2.6119
   35.115    2.6224
   35.250    2.7172
   35.385    2.6330
   35.520    2.5698
   35.655    2.5908
   35.790    2.6540
   35.925    2.7383
   36.060    2.6962
   36.195    2.5066
   36.330    2.5382
   36.465    2.4750
   36.600    2.3697
   36.735    2.5276
   36.870    2.5171
   37.005    2.3802
   37.140    2.1380
   37.275    2.3907
   37.410    2.5803
   37.545    2.4645
   37.680    2.3275
   37.815    2.4329
   37.950    2.3802
   38.085    2.2854
   38.220    2.4855
   38.355    2.3802
   38.490    2.2012
   38.625    2.6646
   38.760    2.1696
   38.895    2.1064
   39.030    2.3381
   39.165    2.3170
   39.300    2.5908
   39.435    2.2959
   39.570    2.2433
   39.705    2.0958
   39.840    2.3170
   39.975    2.3802
   39.990    2.2643