File: data/PXRD/PXRD_KE-081_Cu-Ka1_film-3mm_5s-deg.xyd
    1.500   10.8268
    1.635   10.0474
    1.770    8.9731
    1.905    8.6256
    2.040    7.7093
    2.175    7.0985
    2.310    7.3196
    2.445    7.1617
    2.580    6.7720
    2.715    5.9505
    2.850    6.1295
    2.985    5.7083
    3.120    6.6877
    3.255    6.0769
    3.390    6.8773
    3.525    7.4776
    3.660    8.8468
    3.795   14.2285
    3.930   14.1443
    4.065    6.2559
    4.200    6.0664
    4.335    5.6240
    4.470    5.5187
    4.605    5.5398
    4.740    6.1401
    4.875    6.2875
    5.010    6.1085
    5.145    6.9932
    5.280    8.0358
    5.415    9.4997
    5.550   10.1527
    5.685    7.5303
    5.820    6.7299
    5.955    6.1190
    6.090    5.8241
    6.225    5.6872
    6.360    5.5292
    6.495    5.1080
    6.630    5.5924
    6.765    7.0669
    6.900    5.2027
    7.035    4.9394
    7.170    4.9921
    7.305    4.5603
    7.440    4.6130
    7.575    4.2759
    7.710    4.7604
    7.845    4.9184
    7.980    4.1180
    8.115    4.0232
    8.250    3.9284
    8.385    3.8441
    8.520    3.8336
    8.655    3.8757
    8.790    3.6230
    8.925    3.6967
    9.060    3.6862
    9.195    3.4544
    9.330    3.8547
    9.465    3.9494
    9.600    5.7820
    9.735    3.7915
    9.870    4.1285
   10.005    3.7493
   10.140    3.6862
   10.275    4.3813
   10.410    3.9810
   10.545    3.6967
   10.680    4.0126
   10.815    3.8336
   10.950    3.8547
   11.085    4.5076
   11.220    4.0337
   11.355    3.9073
   11.490    3.8652
   11.625    4.0864
   11.760    4.6445
   11.895    3.8757
   12.030    3.6230
   12.165    3.6651
   12.300    3.7809
   12.435    3.9284
   12.570    3.6440
   12.705    3.6651
   12.840    3.6019
   12.975    4.4128
   13.110    3.7072
   13.245    3.4650
   13.380    3.2649
   13.515    3.7388
   13.650    3.5598
   13.785    3.2122
   13.920    3.3807
   14.055    4.0969
   14.190    3.8863
   14.325    3.6967
   14.460    3.8125
   14.595    3.8231
   14.730    3.6862
   14.865    3.6440
   15.000    3.6230
   15.135    3.5071
   15.270    3.4650
   15.405    3.2122
   15.540    3.2227
   15.675    3.5282
   15.810    3.4966
   15.945    3.5176
   16.080    3.4966
   16.215    3.6230
   16.350    3.4018
   16.485    3.2754
   16.620    3.5914
   16.755    3.5914
   16.890    3.3491
   17.025    3.8547
   17.160    3.3491
   17.295    3.4650
   17.430    3.2859
   17.565    3.2122
   17.700    3.4650
   17.835    3.1596
   17.970    3.5914
   18.105    3.1701
   18.240    3.2543
   18.375    3.6019
   18.510    3.3702
   18.645    3.2859
   18.780    3.5282
   18.915    3.4018
   19.050    3.3702
   19.185    3.4018
   19.320    3.4334
   19.455    3.3491
   19.590    3.4123
   19.725    3.2649
   19.860    3.4334
   19.995    3.3491
   20.130    3.4229
   20.265    3.2438
   20.400    3.5492
   20.535    3.3597
   20.670    3.4544
   20.805    3.4439
   20.940    2.7804
   21.075    3.0753
   21.210    3.1069
   21.345    3.0332
   21.480    3.2227
   21.615    3.2438
   21.750    2.9595
   21.885    3.3913
   22.020    3.2227
   22.155    3.0226
   22.290    3.1912
   22.425    3.2543
   22.560    3.1806
   22.695    3.2859
   22.830    2.8857
   22.965    3.4439
   23.100    3.3175
   23.235    3.0121
   23.370    2.9489
   23.505    3.1069
   23.640    2.6856
   23.775    2.5382
   23.910    2.7383
   24.045    3.1280
   24.180    2.8647
   24.315    2.8436
   24.450    2.7383
   24.585    2.8120
   24.720    2.8331
   24.855    2.7699
   24.990    2.6962
   25.125    2.6119
   25.260    2.9068
   25.395    2.7804
   25.530    2.6119
   25.665    2.7383
   25.800    2.8541
   25.935    2.8120
   26.070    2.6751
   26.205    2.4750
   26.340    2.3907
   26.475    2.4855
   26.610    2.5276
   26.745    2.7067
   26.880    2.6751
   27.015    2.6014
   27.150    2.6119
   27.285    2.4434
   27.420    2.4013
   27.555    2.3907
   27.690    2.5908
   27.825    2.3275
   27.960    2.6435
   28.095    2.5171
   28.230    2.5066
   28.365    2.5171
   28.500    2.3170
   28.635    2.5698
   28.770    2.3486
   28.905    2.5382
   29.040    2.2538
   29.175    2.3275
   29.310    2.2854
   29.445    1.9168
   29.580    2.0537
   29.715    2.0642
   29.850    2.1380
   29.985    2.2959
   30.120    2.0748
   30.255    1.9905
   30.390    2.2012
   30.525    2.0853
   30.660    2.0958
   30.795    1.9379
   30.930    1.9800
   31.065    1.8220
   31.200    2.1169
   31.335    2.0011
   31.470    1.9484
   31.605    1.9695
   31.740    2.3697
   31.875    1.8325
   32.010    1.8115
   32.145    1.7904
   32.280    1.8115
   32.415    1.8747
   32.550    1.9800
   32.685    1.8536
   32.820    1.9168
   32.955    1.6851
   33.090    1.7694
   33.225    1.7062
   33.360    1.6956
   33.495    1.7799
   33.630    1.8536
   33.765    1.8220
   33.900    1.8747
   34.035    1.8431
   34.170    1.6746
   34.305    1.7483
   34.440    1.6430
   34.575    1.6640
   34.710    1.7483
   34.845    1.8852
   34.980    1.7272
   35.115    1.7272
   35.250    1.6114
   35.385    1.7904
   35.520    1.6535
   35.655    1.7694
   35.790    1.7062
   35.925    1.5482
   36.060    1.9484
   36.195    1.6746
   36.330    1.6219
   36.465    1.6008
   36.600    1.7904
   36.735    1.8115
   36.870    1.8325
   37.005    1.6219
   37.140    1.5377
   37.275    1.6956
   37.410    1.5482
   37.545    1.7272
   37.680    1.6851
   37.815    1.6324
   37.950    1.8325
   38.085    1.7799
   38.220    1.5377
   38.355    1.5271
   38.490    1.7378
   38.625    1.7062
   38.760    1.6219
   38.895    1.5692
   39.030    1.5271
   39.165    1.5798
   39.300    1.3375
   39.435    1.4639
   39.570    1.5482
   39.705    1.5587
   39.840    1.4429
   39.975    1.4639
   39.990    1.3586