File: data/PXRD/PXRD_KE-050-1-2_Cu-Ka1_capillary-1mm_5s-deg.xyd
    1.500  144.0758
    1.560  137.1459
    1.620  123.9705
    1.680  115.6609
    1.740  106.7088
    1.800   93.6704
    1.860   86.1506
    1.920   77.9674
    1.980   72.7541
    2.040   66.6983
    2.100   59.4629
    2.160   55.6398
    2.220   50.3528
    2.280   46.8668
    2.340   43.0332
    2.400   40.9163
    2.460   37.4724
    2.520   35.6503
    2.580   33.2701
    2.640   31.2164
    2.700   29.1627
    2.760   28.1095
    2.820   28.1201
    2.880   26.8036
    2.940   26.3507
    3.000   25.1817
    3.060   25.0448
    3.120   24.5182
    3.180   24.9289
    3.240   25.7399
    3.300   25.0553
    3.360   26.3823
    3.420   27.2459
    3.480   28.6361
    3.540   31.1322
    3.600   32.3117
    3.660   35.7557
    3.720   39.9473
    3.780   47.0879
    3.840   57.8410
    3.900   88.4360
    3.960   74.8078
    4.020   25.3081
    4.080   18.0621
    4.140   14.7235
    4.200   14.6814
    4.260   13.3439
    4.320   12.4697
    4.380   12.0906
    4.440   11.4376
    4.500   11.2586
    4.560   11.1743
    4.620   10.3739
    4.680   10.7109
    4.740   10.5319
    4.800   10.3844
    4.860   10.6266
    4.920   10.1422
    4.980   10.6688
    5.040   10.3739
    5.100   10.3844
    5.160   10.9215
    5.220   11.2902
    5.280   12.3223
    5.340   12.9858
    5.400   14.1127
    5.460   16.5877
    5.520   21.1269
    5.580   20.1685
    5.640   11.2375
    5.700    9.2048
    5.760    8.9205
    5.820    8.6361
    5.880    9.0679
    5.940    8.5308
    6.000    8.4466
    6.060    8.0990
    6.120    8.0674
    6.180    8.5624
    6.240    8.2886
    6.300    8.4466
    6.360    8.4255
    6.420    8.7309
    6.480    8.1938
    6.540    8.2464
    6.600    8.2149
    6.660    8.4044
    6.720    9.0785
    6.780    9.5103
    6.840    9.1732
    6.900    8.0253
    6.960    8.2149
    7.020    8.4781
    7.080    8.1411
    7.140    8.4466
    7.200    7.8884
    7.260    7.8989
    7.320    8.2886
    7.380    8.3412
    7.440    8.4255
    7.500    8.0463
    7.560    8.6045
    7.620    8.4781
    7.680    9.0785
    7.740    9.9105
    7.800   10.8689
    7.860   12.2275
    7.920    9.6156
    7.980    8.4255
    8.040    8.6151
    8.100    7.8252
    8.160    8.1622
    8.220    8.5203
    8.280    8.0990
    8.340    7.8462
    8.400    7.7620
    8.460    8.2886
    8.520    8.2570
    8.580    7.7304
    8.640    7.9621
    8.700    8.4150
    8.760    8.4992
    8.820    8.7625
    8.880    8.1622
    8.940    8.4676
    9.000    8.3096
    9.060    8.2359
    9.120    8.2149
    9.180    8.3623
    9.240    8.2780
    9.300    8.3939
    9.360    8.9626
    9.420    9.2154
    9.480   10.7846
    9.540   12.3433
    9.600   15.6293
    9.660   14.0811
    9.720    9.9210
    9.780    8.6677
    9.840    8.8994
    9.900    8.4571
    9.960    8.2675
   10.020    8.6361
   10.080    8.1727
   10.140    8.4044
   10.200    8.3939
   10.260    8.2254
   10.320    9.3839
   10.380    9.5735
   10.440    9.5524
   10.500    8.2149
   10.560    7.8146
   10.620    7.6883
   10.680    7.8357
   10.740    7.8778
   10.800    8.3518
   10.860    8.4255
   10.920    8.0990
   10.980    8.2991
   11.040    8.8362
   11.100   10.2370
   11.160    8.8573
   11.220    8.5203
   11.280    7.4250
   11.340    7.6145
   11.400    7.5408
   11.460    7.7936
   11.520    7.5303
   11.580    8.0463
   11.640    7.7725
   11.700    8.6361
   11.760    9.1311
   11.820    8.6467
   11.880    7.9516
   11.940    7.5513
   12.000    7.2670
   12.060    7.3618
   12.120    6.5192
   12.180    6.8246
   12.240    7.1511
   12.300    7.7093
   12.360    7.2880
   12.420    7.5197
   12.480    7.2565
   12.540    6.8141
   12.600    6.8562
   12.660    6.8668
   12.720    7.3618
   12.780    6.7404
   12.840    6.7930
   12.900    7.1933
   12.960    7.5724
   13.020    8.1622
   13.080    7.8462
   13.140    7.5724
   13.200    6.6877
   13.260    7.0985
   13.320    7.1511
   13.380    6.8141
   13.440    7.0142
   13.500    6.9721
   13.560    7.2775
   13.620    7.3828
   13.680    6.9405
   13.740    6.9721
   13.800    6.9194
   13.860    7.2354
   13.920    6.9826
   13.980    6.6456
   14.040    7.0985
   14.100    7.0985
   14.160    7.4460
   14.220    7.2880
   14.280    7.1617
   14.340    6.6667
   14.400    6.9194
   14.460    6.6561
   14.520    6.6140
   14.580    6.8562
   14.640    6.8352
   14.700    6.3086
   14.760    6.8036
   14.820    6.7404
   14.880    6.4244
   14.940    6.5298
   15.000    6.5403
   15.060    6.4244
   15.120    6.7825
   15.180    6.8668
   15.240    7.0248
   15.300    6.7930
   15.360    6.7088
   15.420    6.6561
   15.480    6.6772
   15.540    6.7720
   15.600    6.8668
   15.660    6.6983
   15.720    6.6245
   15.780    6.2875
   15.840    6.6245
   15.900    6.7088
   15.960    6.4982
   16.020    6.6877
   16.080    6.9510
   16.140    6.9405
   16.200    7.1617
   16.260    6.9932
   16.320    6.9089
   16.380    6.7615
   16.440    6.2454
   16.500    7.1301
   16.560    7.0774
   16.620    6.9405
   16.680    6.8878
   16.710    7.1617