File: data/PXRD/PXRD_KE-264_Co-Ka1_film-3mm_3s-deg.xyd
    1.500    8.8104
    1.635    6.8486
    1.770    5.6893
    1.905    4.7262
    2.040    4.3517
    2.175    3.8167
    2.310    3.3530
    2.445    2.6574
    2.580    2.4077
    2.715    2.2115
    2.850    2.3007
    2.985    1.8192
    3.120    1.8905
    3.255    1.6586
    3.390    2.2115
    3.525    1.5873
    3.660    1.9440
    3.795    1.6765
    3.930    1.6230
    4.065    1.6408
    4.200    1.7300
    4.335    1.4446
    4.470    1.6408
    4.605    1.5338
    4.740    1.6765
    4.875    1.6943
    5.010    1.4625
    5.145    1.7300
    5.280    1.3733
    5.415    1.3554
    5.550    1.7657
    5.685    1.6408
    5.820    1.5516
    5.955    1.6943
    6.090    1.4268
    6.225    1.8370
    6.360    1.9440
    6.495    1.8905
    6.630    1.8548
    6.765    1.7478
    6.900    1.7657
    7.035    1.3911
    7.170    1.3554
    7.305    1.3554
    7.440    1.5338
    7.575    1.2841
    7.710    1.3198
    7.845    1.4268
    7.980    1.3554
    8.115    1.1771
    8.250    1.2484
    8.385    1.0701
    8.520    1.1949
    8.655    0.9809
    8.790    1.2128
    8.925    1.0166
    9.060    0.9988
    9.195    1.1414
    9.330    1.1771
    9.465    0.9809
    9.600    1.1593
    9.735    1.0523
    9.870    1.1771
   10.005    0.7847
   10.140    0.8561
   10.275    1.0344
   10.410    1.1414
   10.545    1.0879
   10.680    0.8204
   10.815    0.9809
   10.950    0.9631
   11.085    0.9631
   11.220    0.9096
   11.355    0.9809
   11.490    0.9452
   11.625    0.8917
   11.760    0.6956
   11.895    0.8917
   12.030    0.7669
   12.165    1.0344
   12.300    0.9274
   12.435    1.0523
   12.570    0.9631
   12.705    0.8026
   12.840    1.0523
   12.975    1.0166
   13.110    0.8917
   13.245    0.8561
   13.380    0.8204
   13.515    0.7847
   13.650    0.9274
   13.785    1.1058
   13.920    0.8917
   14.055    0.8204
   14.190    0.9274
   14.325    0.7669
   14.460    0.9452
   14.595    0.9452
   14.730    0.9988
   14.865    0.7847
   15.000    0.8561
   15.135    0.6956
   15.270    0.7312
   15.405    0.9452
   15.540    0.8739
   15.675    0.7491
   15.810    0.6956
   15.945    0.8204
   16.080    0.8561
   16.215    0.9096
   16.350    0.7134
   16.485    0.7312
   16.620    1.0166
   16.755    0.9274
   16.890    1.0879
   17.025    0.9274
   17.160    0.9809
   17.295    0.8739
   17.430    0.9096
   17.565    0.8382
   17.700    1.0166
   17.835    0.8561
   17.970    0.6956
   18.105    0.7491
   18.240    0.7847
   18.375    0.7669
   18.510    0.7669
   18.645    0.7669
   18.780    0.8561
   18.915    0.9809
   19.050    0.9274
   19.185    0.9096
   19.320    0.8026
   19.455    0.6421
   19.590    0.8917
   19.725    0.8561
   19.860    0.9274
   19.995    0.8917
   20.130    0.9096
   20.265    0.7669
   20.400    0.8739
   20.535    0.6956
   20.670    0.6956
   20.805    0.7847
   20.940    0.9274
   21.075    0.7847
   21.210    0.6777
   21.345    0.9452
   21.480    0.6956
   21.615    0.8204
   21.750    0.9274
   21.885    0.8561
   22.020    0.8026
   22.155    0.7669
   22.290    0.7491
   22.425    0.7669
   22.560    0.9631
   22.695    0.7847
   22.830    0.7312
   22.965    0.7312
   23.100    0.8917
   23.235    0.5886
   23.370    0.6064
   23.505    0.7847
   23.640    0.8204
   23.775    0.7847
   23.910    0.7134
   24.045    0.8204
   24.180    0.8026
   24.315    0.7312
   24.450    0.8026
   24.585    0.5529
   24.720    0.9631
   24.855    0.6421
   24.990    0.8739
   25.125    0.6777
   25.260    0.6242
   25.395    0.5707
   25.530    0.7134
   25.665    0.6242
   25.800    0.6064
   25.935    0.7312
   26.070    0.5529
   26.205    0.6777
   26.340    0.6421
   26.475    0.6421
   26.610    0.5886
   26.745    0.5886
   26.880    0.6064
   27.015    0.6242
   27.150    0.5529
   27.285    0.8382
   27.420    0.5350
   27.555    0.7312
   27.690    0.6064
   27.825    0.5707
   27.960    0.5707
   28.095    0.5707
   28.230    0.6064
   28.365    0.4459
   28.500    0.6956
   28.635    0.6777
   28.770    0.6777
   28.905    0.5350
   29.040    0.6599
   29.175    0.7669
   29.310    0.4459
   29.445    0.5172
   29.580    0.6242
   29.715    0.5172
   29.850    0.5886
   29.985    0.5350
   30.120    0.5529
   30.255    0.6777
   30.390    0.5172
   30.525    0.5886
   30.660    0.5172
   30.795    0.7134
   30.930    0.6242
   31.065    0.5529
   31.200    0.3745
   31.335    0.4815
   31.470    0.4459
   31.605    0.4815
   31.740    0.4102
   31.875    0.4815
   32.010    0.5172
   32.145    0.5172
   32.280    0.5529
   32.415    0.5350
   32.550    0.5707
   32.685    0.3567
   32.820    0.5172
   32.955    0.5707
   33.090    0.4637
   33.225    0.5350
   33.360    0.7134
   33.495    0.4459
   33.630    0.4102
   33.765    0.3567
   33.900    0.3389
   34.035    0.4102
   34.170    0.3745
   34.305    0.3567
   34.440    0.3924
   34.575    0.3924
   34.710    0.3924
   34.845    0.3567
   34.980    0.3924
   35.115    0.3924
   35.250    0.4459
   35.385    0.4102
   35.520    0.4102
   35.655    0.3745
   35.790    0.2319
   35.925    0.2854
   36.060    0.3032
   36.195    0.3389
   36.330    0.4459
   36.465    0.3210
   36.600    0.2319
   36.735    0.3210
   36.870    0.3567
   37.005    0.3567
   37.140    0.3210
   37.275    0.3032
   37.410    0.2675
   37.545    0.2319
   37.680    0.2497
   37.815    0.2319
   37.950    0.3389
   38.085    0.3210
   38.220    0.3389
   38.355    0.2854
   38.490    0.3210
   38.625    0.2497
   38.760    0.3210
   38.895    0.3032
   39.030    0.2675
   39.165    0.2140
   39.300    0.3210
   39.435    0.2140
   39.570    0.2675
   39.705    0.2319
   39.840    0.2675
   39.975    0.2497
   39.990    0.3032