File: data/PXRD/PXRD_KE-075_Cu-Ka1_capillary-1mm_5s-deg.xyd
    1.500   19.7367
    1.635   18.5466
    1.770   17.1248
    1.905   17.1353
    2.040   16.8615
    2.175   16.8720
    2.310   17.2091
    2.445   18.0832
    2.580   19.7999
    2.715   22.5066
    2.850   26.4350
    2.985   31.8273
    3.120   39.8210
    3.255   53.2912
    3.390   78.7046
    3.525   77.5566
    3.660   72.4276
    3.795  119.0521
    3.930   72.1011
    4.065   30.3002
    4.200   19.2101
    4.335   12.4697
    4.470   10.4476
    4.605    9.2470
    4.740   10.0053
    4.875    9.4892
    5.010   11.0585
    5.145   14.3128
    5.280   20.5266
    5.415   36.5771
    5.550   20.8531
    5.685    6.6035
    5.820    7.1301
    5.955    6.7615
    6.090    6.5087
    6.225    7.0985
    6.360    8.1517
    6.495    9.6682
    6.630   13.8494
    6.765   21.6114
    6.900   10.9005
    7.035    9.1838
    7.170    6.9510
    7.305    6.9300
    7.440    7.6988
    7.575    8.7309
    7.710   13.0384
    7.845   10.8057
    7.980    8.3834
    8.115    8.1095
    8.250    7.4039
    8.385    7.2459
    8.520    6.9721
    8.655    7.5829
    8.790    6.2770
    8.925    6.0874
    9.060    6.4350
    9.195    6.8984
    9.330    8.6888
    9.465   16.3454
    9.600   14.7551
    9.735    5.5187
    9.870    5.4766
   10.005    5.8978
   10.140    7.1090
   10.275   11.2691
   10.410    6.2033
   10.545    5.8241
   10.680    6.1506
   10.815    6.7509
   10.950    8.9415
   11.085    9.1943
   11.220    5.1606
   11.355    5.4660
   11.490    6.7193
   11.625    9.4050
   11.760    9.2680
   11.895    6.0558
   12.030    5.7188
   12.165    6.1927
   12.300    6.3402
   12.435    5.9189
   12.570    5.6767
   12.705    6.1295
   12.840    7.1827
   12.975    9.6051
   13.110    5.5398
   13.245    5.5082
   13.380    5.9400
   13.515    7.6461
   13.650    5.4239
   13.785    5.3607
   13.920    6.1927
   14.055    8.9100
   14.190    5.6029
   14.325    5.5503
   14.460    4.8868
   14.595    5.0448
   14.730    5.2343
   14.865    5.2027
   15.000    5.6767
   15.135    6.1717
   15.270    5.3397
   15.405    4.9289
   15.540    5.2975
   15.675    5.6767
   15.810    5.2133
   15.945    5.0237
   16.080    5.9610
   16.215    5.6661
   16.350    5.2554
   16.485    5.6135
   16.620    6.1506
   16.755    5.6872
   16.890    5.8031
   17.025    8.0147
   17.160    5.6029
   17.295    5.5924
   17.430    5.6872
   17.565    5.8031
   17.700    5.2449
   17.835    5.7925
   17.970    6.0348
   18.105    5.5082
   18.240    5.4344
   18.375    6.3612
   18.510    5.7609
   18.645    4.9500
   18.780    6.1506
   18.915    6.0558
   19.050    6.0979
   19.185    5.7504
   19.320    5.2870
   19.455    5.8031
   19.590    6.2875
   19.725    6.2454
   19.860    5.4871
   19.995    5.6451
   20.130    5.5292
   20.265    6.1401
   20.400    8.0779
   20.535    5.6240
   20.670    5.7609
   20.805    5.8768
   20.940    5.6029
   21.075    6.0558
   21.210    5.9084
   21.345    5.7925
   21.480    6.0453
   21.615    5.9400
   21.750    6.0242
   21.885    6.6140
   22.020    5.5714
   22.155    6.2349
   22.290    5.9400
   22.425    6.2981
   22.560    8.3518
   22.695    5.8347
   22.830    7.0669
   22.965    7.2775
   23.100    6.3086
   23.235    6.5824
   23.370    5.6029
   23.505    5.4028
   23.640    5.8873
   23.775    5.7399
   23.910    6.2138
   24.045    5.2659
   24.180    5.6872
   24.315    5.1290
   24.450    5.5503
   24.585    5.3081
   24.720    5.1606
   24.855    5.5714
   24.990    5.5398
   25.125    5.7609
   25.260    5.3502
   25.395    5.5292
   25.530    5.9294
   25.665    5.1501
   25.800    7.6040
   25.935    5.4555
   26.070    5.2133
   26.205    5.3607
   26.340    5.3818
   26.475    5.6767
   26.610    5.2975
   26.745    5.1922
   26.880    5.8452
   27.015    5.8031
   27.150    5.1817
   27.285    5.0342
   27.420    4.8341
   27.555    5.6872
   27.690    5.2870
   27.825    5.0342
   27.960    6.3191
   28.095    5.8136
   28.230    5.6977
   28.365    5.4660
   28.500    5.9294
   28.635    4.8657
   28.770    4.7604
   28.905    5.6767
   29.040    5.6767
   29.175    5.2975
   29.310    5.4660
   29.445    5.1290
   29.580    4.8236
   29.715    4.9816
   29.850    5.5608
   29.985    4.5392
   30.120    5.4450
   30.255    4.8763
   30.390    4.8447
   30.525    4.8868
   30.660    5.0448
   30.795    4.7709
   30.930    4.7393
   31.065    4.8657
   31.200    4.6130
   31.335    4.8447
   31.470    4.6656
   31.605    5.2765
   31.740    5.4871
   31.875    5.3291
   32.010    5.4660
   32.145    7.0563
   32.280    4.7499
   32.415    4.5919
   32.550    4.2970
   32.685    4.5919
   32.820    4.6445
   32.955    4.6024
   33.090    4.3181
   33.225    4.2865
   33.360    4.5287
   33.495    4.5392
   33.630    4.7920
   33.765    5.3081
   33.900    5.7188
   34.035    4.6867
   34.170    4.0864
   34.305    4.6761
   34.440    4.4971
   34.575    4.0653
   34.710    4.2865
   34.845    4.3075
   34.980    4.2443
   35.115    4.5392
   35.250    4.2654
   35.385    4.0021
   35.520    4.2865
   35.655    4.4444
   35.790    4.1601
   35.925    4.4339
   36.060    4.2022
   36.195    3.8125
   36.330    3.9389
   36.465    4.1180
   36.600    4.4444
   36.735    4.2549
   36.870    4.2549
   37.005    4.2022
   37.140    4.3181
   37.275    4.0653
   37.410    3.9916
   37.545    4.0548
   37.680    3.9810
   37.815    4.4444
   37.950    4.2970
   38.085    4.1917
   38.220    3.9073
   38.355    4.2443
   38.490    4.0653
   38.625    4.7815
   38.760    3.7599
   38.895    3.9073
   39.030    4.0021
   39.165    3.9179
   39.300    4.0232
   39.435    3.6862
   39.570    4.0021
   39.705    4.2022
   39.840    3.7915
   39.975    3.9073
   39.990    4.2865