File: data/PXRD/PXRD_KE-240_Co-Ka1_capillary-1mm_5s-deg.xyd
    1.500    3.4457
    1.635    3.0926
    1.770    2.5468
    1.905    1.9476
    2.040    1.8941
    2.175    1.6479
    2.310    1.4981
    2.445    1.4446
    2.580    1.2841
    2.715    1.1236
    2.850    1.0166
    2.985    1.1771
    3.120    1.0380
    3.255    0.8775
    3.390    1.0273
    3.525    1.1129
    3.660    1.0380
    3.795    0.9096
    3.930    0.9096
    4.065    0.9310
    4.200    0.8454
    4.335    0.9096
    4.470    1.0915
    4.605    0.8561
    4.740    0.9952
    4.875    0.9203
    5.010    0.9845
    5.145    0.9845
    5.280    0.7919
    5.415    0.8454
    5.550    0.7919
    5.685    0.8454
    5.820    0.7919
    5.955    0.8026
    6.090    0.7491
    6.225    0.8882
    6.360    0.8668
    6.495    0.8989
    6.630    0.8775
    6.765    0.9631
    6.900    0.8240
    7.035    0.7384
    7.170    0.8561
    7.305    0.8668
    7.440    0.8454
    7.575    0.7170
    7.710    0.9096
    7.845    0.9738
    7.980    0.7919
    8.115    1.0487
    8.250    0.8347
    8.385    0.8347
    8.520    1.0594
    8.655    0.8133
    8.790    0.8133
    8.925    0.7598
    9.060    0.8561
    9.195    0.8561
    9.330    0.9524
    9.465    0.9417
    9.600    0.9524
    9.735    0.8668
    9.870    0.8989
   10.005    0.8026
   10.140    0.8989
   10.275    0.9845
   10.410    1.0808
   10.545    0.8561
   10.680    0.7812
   10.815    1.0166
   10.950    0.8668
   11.085    0.9203
   11.220    0.9203
   11.355    1.0380
   11.490    0.9631
   11.625    1.1022
   11.760    0.9845
   11.895    1.0380
   12.030    1.0166
   12.165    1.0594
   12.300    1.0273
   12.435    0.9845
   12.570    0.9203
   12.705    1.0701
   12.840    0.9096
   12.975    0.9203
   13.110    0.9310
   13.245    0.9417
   13.380    0.9952
   13.515    0.7277
   13.650    0.8561
   13.785    0.8026
   13.920    0.8561
   14.055    0.8989
   14.190    0.7277
   14.325    0.6100
   14.460    0.8775
   14.595    0.6421
   14.730    0.6528
   14.865    0.6314
   15.000    0.7170
   15.135    0.6742
   15.270    0.7491
   15.405    0.7170
   15.540    0.8240
   15.675    0.6528
   15.810    0.7598
   15.945    0.7919
   16.080    0.9310
   16.215    0.6314
   16.350    0.7491
   16.485    0.6635
   16.620    0.6849
   16.755    0.6849
   16.890    0.6742
   17.025    0.6207
   17.160    0.6956
   17.295    0.6849
   17.430    0.8882
   17.565    0.5564
   17.700    0.8454
   17.835    0.7491
   17.970    0.5886
   18.105    0.7170
   18.240    0.6635
   18.375    0.8026
   18.510    0.7705
   18.645    0.6635
   18.780    0.7919
   18.915    0.6100
   19.050    0.6742
   19.185    0.7598
   19.320    0.7705
   19.455    0.7063
   19.590    0.6849
   19.725    0.6956
   19.860    0.8240
   19.995    0.7384
   20.130    0.7170
   20.265    0.7277
   20.400    0.7919
   20.535    0.6956
   20.670    0.7705
   20.805    0.8133
   20.940    0.8561
   21.075    0.7384
   21.210    0.7277
   21.345    0.7705
   21.480    0.8454
   21.615    0.6956
   21.750    0.8989
   21.885    0.6635
   22.020    0.7063
   22.155    0.9417
   22.290    0.8775
   22.425    0.9203
   22.560    0.7277
   22.695    0.7384
   22.830    0.6100
   22.965    0.7063
   23.100    0.7277
   23.235    0.8133
   23.370    0.7705
   23.505    0.7705
   23.640    0.6314
   23.775    0.7598
   23.910    0.7598
   24.045    0.7063
   24.180    0.7919
   24.315    0.7598
   24.450    0.9524
   24.585    0.8668
   24.720    0.8775
   24.855    0.6849
   24.990    0.8561
   25.125    0.8882
   25.260    0.8561
   25.395    0.7919
   25.530    0.8347
   25.665    1.0380
   25.800    0.7705
   25.935    0.9310
   26.070    0.9631
   26.205    0.7812
   26.340    0.8454
   26.475    0.8668
   26.610    0.8026
   26.745    0.8561
   26.880    0.8026
   27.015    0.8347
   27.150    0.6956
   27.285    0.7170
   27.420    0.9524
   27.555    0.6314
   27.690    0.7705
   27.825    0.7170
   27.960    0.7598
   28.095    0.8240
   28.230    0.8133
   28.365    0.7063
   28.500    0.8454
   28.635    0.7919
   28.770    0.8026
   28.905    0.7063
   29.040    0.7384
   29.175    0.8240
   29.310    0.6849
   29.445    0.7812
   29.580    0.8133
   29.715    0.8240
   29.850    0.6956
   29.985    0.6956
   30.120    0.7598
   30.255    0.6528
   30.390    0.6956
   30.525    0.8240
   30.660    0.7812
   30.795    0.7598
   30.930    0.6956
   31.065    0.7812
   31.200    0.7384
   31.335    0.7063
   31.470    0.6956
   31.605    0.7598
   31.740    0.6956
   31.875    0.6635
   32.010    0.5457
   32.145    0.6421
   32.280    0.6849
   32.415    0.6207
   32.550    0.6421
   32.685    0.7384
   32.820    0.5671
   32.955    0.6207
   33.090    0.7063
   33.225    0.6207
   33.360    0.6421
   33.495    0.7384
   33.630    0.6314
   33.765    0.6956
   33.900    0.5886
   34.035    0.5886
   34.170    0.6421
   34.305    0.6421
   34.440    0.5457
   34.575    0.6314
   34.710    0.5136
   34.845    0.5671
   34.980    0.5564
   35.115    0.5243
   35.250    0.5457
   35.385    0.4708
   35.520    0.5886
   35.655    0.4601
   35.790    0.5564
   35.925    0.5457
   36.060    0.4494
   36.195    0.4922
   36.330    0.4815
   36.465    0.4601
   36.600    0.4708
   36.735    0.4815
   36.870    0.5564
   37.005    0.5029
   37.140    0.6207
   37.275    0.6314
   37.410    0.8668
   37.545    0.7491
   37.680    0.4601
   37.815    0.3638
   37.950    0.4494
   38.085    0.5136
   38.220    0.4494
   38.355    0.4494
   38.490    0.4387
   38.625    0.4173
   38.760    0.3638
   38.895    0.4708
   39.030    0.5243
   39.165    0.3852
   39.300    0.3852
   39.435    0.6100
   39.570    0.4601
   39.705    0.4387
   39.840    0.4387
   39.975    0.3852
   39.990    0.3424