File: data/PXRD/PXRD_KE-275_Cu-Ka1_capillary-1mm_3s-deg.xyd
    1.500   16.1664
    1.635   14.5866
    1.770   13.3755
    1.905   12.1994
    2.040   10.6898
    2.175    9.0925
    2.310    9.1276
    2.445    8.5484
    2.580    8.2675
    2.715    7.6356
    2.850    8.5308
    2.985    9.8297
    3.120   12.2170
    3.255   17.7637
    3.390   28.5764
    3.525   52.7646
    3.660  113.0595
    3.795  219.5366
    3.930    8.3728
    4.065    5.9681
    4.200    5.8452
    4.335    5.4064
    4.470    5.0904
    4.605    5.6345
    4.740    4.7042
    4.875    5.5117
    5.010    7.1617
    5.145   10.6021
    5.280   24.5568
    5.415   17.9744
    5.550    4.8271
    5.685    5.1255
    5.820    4.7920
    5.955    4.4585
    6.090    4.3707
    6.225    4.7569
    6.360    5.6521
    6.495    9.4085
    6.630    9.0925
    6.765    4.4585
    6.900    4.5111
    7.035    4.3005
    7.170    4.1074
    7.305    4.3005
    7.440    5.1431
    7.575   10.2861
    7.710    4.4058
    7.845    4.2127
    7.980    4.3532
    8.115    3.9494
    8.250    4.2478
    8.385    5.0026
    8.520    9.0750
    8.655    4.0372
    8.790    3.9143
    8.925    3.7915
    9.060    4.1250
    9.195    5.8978
    9.330   14.5691
    9.465    4.4058
    9.600    3.7915
    9.735    3.8617
    9.870    4.3356
   10.005    7.9340
   10.140    8.5835
   10.275    4.0021
   10.410    3.8266
   10.545    4.4936
   10.680    5.4941
   10.815    9.8122
   10.950    3.6862
   11.085    3.3175
   11.220    4.1074
   11.355    4.5287
   11.490    6.6877
   11.625    3.8617
   11.760    3.6159
   11.895    3.8441
   12.030    5.1080
   12.165    3.7915
   12.300    3.4931
   12.435    3.7388
   12.570    4.2478
   12.705    6.1436
   12.840    3.5984
   12.975    3.4755
   13.110    3.6686
   13.245    4.7569
   13.380    3.6335
   13.515    3.7564
   13.650    4.2478
   13.785    9.3558
   13.920    3.4931
   14.055    3.9846
   14.190    3.6159
   14.325    3.5808
   14.460    3.6159
   14.595    3.3702
   14.730    4.0723
   14.865    4.7042
   15.000    3.5106
   15.135    3.7564
   15.270    3.3526
   15.405    3.4053
   15.540    3.3175
   15.675    3.6159
   15.810    5.0026
   15.945    3.5106
   16.080    3.7564
   16.215    4.6691
   16.350    3.3175
   16.485    3.5808
   16.620    4.3005
   16.755    4.5287
   16.890    3.7037
   17.025    3.5984
   17.160    4.8447
   17.295    3.4755
   17.430    3.8792
   17.565    4.2127
   17.700    3.6862
   17.835    3.8090
   17.970    4.6340
   18.105    3.8266
   18.240    3.7388
   18.375    4.3883
   18.510    3.6510
   18.645    3.8266
   18.780    3.7915
   18.915    3.5633
   19.050    3.8441
   19.185    4.4058
   19.320    3.5633
   19.455    3.9494
   19.590    3.8090
   19.725    3.4931
   19.860    4.3883
   19.995    4.8447
   20.130    3.7564
   20.265    4.1250
   20.400    3.3526
   20.535    3.3877
   20.670    4.0372
   20.805    3.6686
   20.940    3.6510
   21.075    3.5984
   21.210    3.5282
   21.345    4.4760
   21.480    3.9494
   21.615    3.0191
   21.750    4.0197
   21.885    3.6510
   22.020    4.2478
   22.155    4.8271
   22.290    3.6686
   22.425    5.5643
   22.560    4.3532
   22.695    3.8792
   22.830    4.1250
   22.965    3.5106
   23.100    3.8617
   23.235    4.0021
   23.370    4.8095
   23.505    4.1952
   23.640    3.8617
   23.775    3.7213
   23.910    3.4580
   24.045    3.6510
   24.180    3.5282
   24.315    3.7739
   24.450    3.7037
   24.585    3.3000
   24.720    4.0899
   24.855    3.4931
   24.990    4.4760
   25.125    3.7388
   25.260    5.5643
   25.395    3.5633
   25.530    3.5984
   25.665    3.7915
   25.800    4.0548
   25.935    3.8441
   26.070    3.6686
   26.205    3.8266
   26.340    3.6159
   26.475    4.3707
   26.610    3.4931
   26.745    3.6862
   26.880    4.0372
   27.015    3.4755
   27.150    3.3702
   27.285    3.3351
   27.420    3.4229
   27.555    3.9319
   27.690    3.2473
   27.825    3.5457
   27.960    3.1069
   28.095    3.3000
   28.230    3.4931
   28.365    3.3702
   28.500    3.2824
   28.635    4.3883
   28.770    3.9670
   28.905    3.1596
   29.040    3.3702
   29.175    3.9143
   29.310    3.4580
   29.445    3.8441
   29.580    3.6862
   29.715    3.2649
   29.850    3.4931
   29.985    3.0718
   30.120    3.5808
   30.255    3.5984
   30.390    3.4931
   30.525    3.1596
   30.660    3.0016
   30.795    3.3000
   30.930    2.9314
   31.065    3.4931
   31.200    3.5984
   31.335    3.1245
   31.470    3.2298
   31.605    3.3702
   31.740    3.3175
   31.875    2.8963
   32.010    3.1596
   32.145    2.8612
   32.280    3.1245
   32.415    2.7909
   32.550    2.7734
   32.685    3.2824
   32.820    2.8436
   32.955    3.1947
   33.090    2.7383
   33.225    3.1245
   33.360    2.4399
   33.495    2.7558
   33.630    2.4223
   33.765    2.7558
   33.900    2.8436
   34.035    2.6681
   34.170    2.5628
   34.305    2.5101
   34.440    3.0191
   34.575    2.8963
   34.710    2.8436
   34.845    3.3877
   34.980    2.7207
   35.115    2.6330
   35.250    2.8436
   35.385    2.8787
   35.520    2.5276
   35.655    2.4223
   35.790    2.5101
   35.925    2.5979
   36.060    2.5276
   36.195    2.4048
   36.330    2.5276
   36.465    2.5452
   36.600    2.6330
   36.735    2.4574
   36.870    2.4223
   37.005    2.4048
   37.140    2.4399
   37.275    2.5452
   37.410    2.6154
   37.545    2.8963
   37.680    2.4223
   37.815    2.3697
   37.950    2.4750
   38.085    2.6154
   38.220    2.1590
   38.355    2.5276
   38.490    2.3697
   38.625    2.4399
   38.760    2.8436
   38.895    2.5979
   39.030    2.4750
   39.165    2.6154
   39.300    2.5276
   39.435    2.2468
   39.570    2.6681
   39.705    2.6330
   39.840    2.4223
   39.975    2.1239
   39.990    2.3170