File: data/PXRD/PXRD_KE-049-4_Cu-Ka1_capillary-0.5mm_5s-deg.xyd
    1.500   15.3818
    1.635   14.2654
    1.770   13.7019
    1.905   13.1596
    2.040   12.6330
    2.175   12.6172
    2.310   13.2438
    2.445   14.1127
    2.580   15.6240
    2.715   17.8620
    2.850   21.1374
    2.985   25.0606
    3.120   33.1754
    3.255   44.3075
    3.390   72.4697
    3.525   81.1217
    3.660   25.3607
    3.795   28.4044
    3.930   41.6851
    4.065   46.5771
    4.200   37.1090
    4.335   18.6309
    4.470    9.8052
    4.605    7.6145
    4.740    6.4402
    4.875    6.0558
    5.010    5.8504
    5.145    5.8715
    5.280    5.9610
    5.415    6.6193
    5.550    7.2986
    5.685    5.3660
    5.820    5.0184
    5.955    5.5029
    6.090    5.4239
    6.225    5.4292
    6.360    5.6451
    6.495    6.2401
    6.630    6.9300
    6.765    8.7151
    6.900   11.9589
    7.035   11.7062
    7.170    6.0611
    7.305    5.5977
    7.440    5.5292
    7.575    5.7609
    7.710    5.8504
    7.845    6.9721
    7.980    7.5566
    8.115    8.3834
    8.250    8.9679
    8.385    8.6993
    8.520    7.9410
    8.655    7.2933
    8.790    6.0611
    8.925    5.8820
    9.060    5.8452
    9.195    6.1875
    9.330    6.6456
    9.465    5.7030
    9.600    5.9558
    9.735    5.3344
    9.870    5.3291
   10.005    5.6503
   10.140    5.4397
   10.275    5.5872
   10.410    6.0032
   10.545    5.6661
   10.680    5.1501
   10.815    5.1606
   10.950    5.2238
   11.085    5.0553
   11.220    5.1290
   11.355    5.0184
   11.490    5.2185
   11.625    5.0974
   11.760    5.5450
   11.895    5.3607
   12.030    5.2870
   12.165    5.6925
   12.300    5.8083
   12.435    5.7767
   12.570    5.6872
   12.705    5.5556
   12.840    5.4871
   12.975    5.6451
   13.110    5.1237
   13.245    5.1975
   13.380    5.3870
   13.515    5.4186
   13.650    5.2712
   13.785    5.2765
   13.920    5.0922
   14.055    5.3028
   14.190    5.2133
   14.325    5.0869
   14.460    4.9289
   14.595    4.8131
   14.730    4.8236
   14.865    4.8447
   15.000    4.8341
   15.135    4.7657
   15.270    4.9868
   15.405    5.2607
   15.540    4.8131
   15.675    4.9184
   15.810    4.9447
   15.945    5.0764
   16.080    4.8447
   16.215    4.8289
   16.350    4.7130
   16.485    4.6393
   16.620    4.8236
   16.755    5.1080
   16.890    4.8447
   17.025    5.0869
   17.160    5.1606
   17.295    4.9658
   17.430    4.9921
   17.565    5.0711
   17.700    4.8447
   17.835    4.8341
   17.970    5.3660
   18.105    5.3765
   18.240    5.3344
   18.375    5.2501
   18.510    5.0132
   18.645    5.0079
   18.780    5.0553
   18.915    4.8815
   19.050    4.9763
   19.185    5.0606
   19.320    4.7973
   19.455    5.1922
   19.590    5.3818
   19.725    5.5029
   19.860    5.6977
   19.995    5.7557
   20.130    5.5240
   20.265    5.4450
   20.400    5.5924
   20.535    5.4818
   20.670    5.5556
   20.805    5.4344
   20.940    5.5292
   21.075    5.6609
   21.210    5.4134
   21.345    5.7715
   21.480    5.5977
   21.615    5.5029
   21.750    5.3397
   21.885    5.4818
   22.020    5.3344
   22.155    5.4450
   22.290    5.4081
   22.425    5.5240
   22.560    5.3186
   22.695    5.5766
   22.830    5.3923
   22.965    5.4502
   23.100    5.8294
   23.235    5.5134
   23.370    5.2554
   23.505    5.3291
   23.640    5.6029
   23.775    5.3502
   23.910    5.3028
   24.045    5.3818
   24.180    5.4608
   24.315    4.9868
   24.450    5.0500
   24.585    5.1659
   24.720    5.4397
   24.855    5.1764
   24.990    5.1501
   25.125    4.7973
   25.260    5.2817
   25.395    4.8763
   25.530    5.2291
   25.665    5.2291
   25.800    5.0869
   25.935    4.8236
   26.070    4.8025
   26.205    4.7657
   26.340    4.9289
   26.475    4.6077
   26.610    4.8447
   26.745    5.0500
   26.880    4.9342
   27.015    4.8236
   27.150    4.8868
   27.285    4.8131
   27.420    4.7025
   27.555    4.6077
   27.690    4.7183
   27.825    4.4708
   27.960    4.7025
   28.095    4.7920
   28.230    5.0922
   28.365    4.6814
   28.500    4.8552
   28.635    4.7973
   28.770    4.6235
   28.905    4.4918
   29.040    4.5761
   29.175    4.3707
   29.310    4.1706
   29.445    4.5814
   29.580    4.2443
   29.715    4.2759
   29.850    4.3971
   29.985    4.3918
   30.120    4.3549
   30.255    4.5498
   30.390    4.6077
   30.525    4.4181
   30.660    4.3391
   30.795    4.2549
   30.930    4.1969
   31.065    4.2443
   31.200    4.0390
   31.335    4.0495
   31.470    4.2233
   31.605    4.4181
   31.740    4.5287
   31.875    4.3444
   32.010    4.1180
   32.145    4.2022
   32.280    4.0706
   32.415    3.9073
   32.550    4.0653
   32.685    4.0390
   32.820    3.8020
   32.955    3.8441
   33.090    3.8915
   33.225    3.9179
   33.360    4.1496
   33.495    3.8494
   33.630    3.8336
   33.765    3.8441
   33.900    3.6862
   34.035    3.5756
   34.170    4.0179
   34.305    3.7177
   34.440    3.7177
   34.575    3.5650
   34.710    3.4597
   34.845    3.5124
   34.980    3.7335
   35.115    3.5282
   35.250    3.6598
   35.385    3.8547
   35.520    3.7651
   35.655    3.4018
   35.790    3.6124
   35.925    3.5282
   36.060    3.7019
   36.195    3.5176
   36.330    3.4176
   36.465    3.7177
   36.600    3.4702
   36.735    3.5808
   36.870    3.4597
   37.005    3.5861
   37.140    3.4808
   37.275    3.3386
   37.410    3.3281
   37.545    3.3439
   37.680    3.0700
   37.815    3.3333
   37.950    3.4439
   38.085    3.3070
   38.220    3.1859
   38.355    3.3913
   38.490    3.0858
   38.625    3.3913
   38.760    3.3333
   38.895    3.2280
   39.030    3.3755
   39.165    3.2227
   39.300    3.4597
   39.435    3.3123
   39.570    3.2385
   39.705    3.3649
   39.840    3.2912
   39.975    3.3175
   39.990    3.2701