File: data/PXRD/PXRD_KE-151_Cu-Ka1_capillary-1mm_5s-deg.xyd
    1.500   25.8241
    1.635   21.4113
    1.770   18.0727
    1.905   16.6825
    2.040   14.5445
    2.175   13.4808
    2.310   12.3960
    2.445   11.9326
    2.580   11.3323
    2.715   10.5319
    2.850   10.3949
    2.985   10.2475
    3.120   10.0579
    3.255   10.2896
    3.390   10.7846
    3.525   10.7846
    3.660   11.9010
    3.795   14.9658
    3.930   12.6488
    4.065    8.6256
    4.200    8.4255
    4.335    8.1833
    4.470    8.4360
    4.605    8.4360
    4.740    8.3412
    4.875    8.6783
    5.010    8.2780
    5.145    8.6677
    5.280    9.0363
    5.415   11.0374
    5.550    9.9315
    5.685    8.4676
    5.820    8.0042
    5.955    7.9200
    6.090    8.3623
    6.225    8.2359
    6.360    8.5097
    6.495    7.9410
    6.630    8.8046
    6.765    8.9837
    6.900    8.1517
    7.035    8.1727
    7.170    8.1517
    7.305    8.1095
    7.440    8.6467
    7.575    8.8678
    7.710    8.1306
    7.845    8.9310
    7.980    8.3623
    8.115    7.8884
    8.250    8.3834
    8.385    8.1517
    8.520    9.1417
    8.655    8.6677
    8.790    8.7414
    8.925    8.2043
    9.060    8.5835
    9.195    9.0574
    9.330    8.7836
    9.465    9.6261
    9.600    9.0679
    9.735    8.3728
    9.870    8.7941
   10.005    8.6783
   10.140    8.6045
   10.275    9.1311
   10.410    8.6783
   10.545    8.5097
   10.680    8.3202
   10.815    8.4360
   10.950    8.7309
   11.085    8.6151
   11.220    8.2886
   11.355    8.1622
   11.490    7.9937
   11.625    7.9305
   11.760    8.3834
   11.895    7.8778
   12.030    7.8041
   12.165    7.6356
   12.300    7.9200
   12.435    8.0990
   12.570    7.8673
   12.705    7.9937
   12.840    7.8884
   12.975    8.1411
   13.110    7.2986
   13.245    7.4776
   13.380    7.4460
   13.515    7.4144
   13.650    7.6777
   13.785    7.6883
   13.920    7.2986
   14.055    7.9726
   14.190    7.9094
   14.325    7.4776
   14.460    7.3196
   14.595    7.7199
   14.730    7.7304
   14.865    7.3723
   15.000    7.6145
   15.135    7.9094
   15.270    7.3934
   15.405    7.6672
   15.540    7.7093
   15.675    7.3512
   15.810    8.2149
   15.945    8.4255
   16.080    8.4676
   16.215    8.7414
   16.350    8.0990
   16.485    8.2043
   16.620    7.9937
   16.755    8.0463
   16.890    7.6356
   17.025    8.4255
   17.160    7.7830
   17.295    7.7725
   17.430    7.6251
   17.565    7.6883
   17.700    7.7199
   17.835    8.2359
   17.970    7.9621
   18.105    8.0463
   18.240    7.6883
   18.375    7.3091
   18.510    7.5513
   18.645    7.9410
   18.780    7.4882
   18.915    7.2670
   19.050    7.9410
   19.185    7.6777
   19.320    7.8778
   19.455    7.7620
   19.590    7.5513
   19.725    7.6567
   19.860    7.8041
   19.995    8.1411
   20.130    8.1727
   20.265    7.9410
   20.400    7.7936
   20.535    7.5092
   20.670    7.7514
   20.805    7.9410
   20.940    8.0253
   21.075    7.6356
   21.210    7.5935
   21.345    7.9516
   21.480    7.9726
   21.615    8.0463
   21.750    7.5092
   21.885    8.5097
   22.020    7.6988
   22.155    7.8884
   22.290    8.3096
   22.425    8.2043
   22.560    7.9831
   22.695    7.8568
   22.830    8.1938
   22.965    7.6356
   23.100    8.2991
   23.235    7.7830
   23.370    7.5724
   23.505    7.3512
   23.640    7.6145
   23.775    8.0358
   23.910    7.8041
   24.045    7.6672
   24.180    7.7936
   24.315    8.0253
   24.450    8.2149
   24.585    7.6567
   24.720    7.6040
   24.855    7.3828
   24.990    8.0674
   25.125    7.6040
   25.260    7.4039
   25.395    7.1827
   25.530    8.0779
   25.665    7.6251
   25.800    7.8252
   25.935    7.5303
   26.070    7.4776
   26.205    7.3723
   26.340    7.3196
   26.475    7.5303
   26.610    8.0885
   26.745    7.6567
   26.880    7.2459
   27.015    7.4882
   27.150    7.1301
   27.285    7.0879
   27.420    7.0669
   27.555    7.2249
   27.690    7.4776
   27.825    7.5303
   27.960    7.3934
   28.095    7.5408
   28.230    7.4566
   28.365    7.2354
   28.500    6.8562
   28.635    7.4355
   28.770    7.3512
   28.905    7.5197
   29.040    7.2565
   29.175    7.1406
   29.310    7.0985
   29.445    7.3196
   29.580    7.1617
   29.715    7.2459
   29.850    6.9300
   29.985    7.1933
   30.120    6.8246
   30.255    6.4139
   30.390    7.0458
   30.525    7.2249
   30.660    6.8457
   30.795    6.9510
   30.930    6.6667
   31.065    6.8984
   31.200    6.8246
   31.335    7.1090
   31.470    6.8562
   31.605    7.0879
   31.740    7.0248
   31.875    7.2880
   32.010    7.4882
   32.145    7.6356
   32.280    6.8141
   32.415    6.7825
   32.550    6.8352
   32.685    7.0985
   32.820    6.4034
   32.955    6.1717
   33.090    6.9194
   33.225    6.4560
   33.360    6.6140
   33.495    6.5508
   33.630    6.7509
   33.765    6.8457
   33.900    7.1722
   34.035    6.7088
   34.170    6.3928
   34.305    6.3402
   34.440    6.3191
   34.575    6.4982
   34.710    6.6351
   34.845    6.5824
   34.980    6.2138
   35.115    6.3928
   35.250    6.2981
   35.385    6.4350
   35.520    6.7088
   35.655    6.1611
   35.790    6.1085
   35.925    6.2454
   36.060    6.0664
   36.195    6.2665
   36.330    6.4455
   36.465    6.4876
   36.600    6.4982
   36.735    6.2138
   36.870    6.4350
   37.005    5.9716
   37.140    6.2454
   37.275    6.2559
   37.410    6.2138
   37.545    6.2770
   37.680    6.0979
   37.815    6.1401
   37.950    6.4034
   38.085    6.6351
   38.220    6.2138
   38.355    6.6983
   38.490    6.3191
   38.625    6.4139
   38.760    6.2033
   38.895    5.9400
   39.030    7.0458
   39.165    6.4350
   39.300    6.7615
   39.435    6.3928
   39.570    5.7504
   39.705    6.3191
   39.840    5.9716
   39.975    6.1506
   39.990    5.9926