File: data/PXRD/PXRD_KE-305-2E_Cu-Ka1_capillary-1mm_3s-deg.xyd
    1.500   24.8903
    1.635   21.3270
    1.770   18.7292
    1.905   17.8691
    2.040   16.4473
    2.175   15.3063
    2.310   14.7622
    2.445   15.1483
    2.580   15.4467
    2.715   16.4297
    2.850   17.6233
    2.985   19.8350
    3.120   23.8196
    3.255   27.0142
    3.390   35.5099
    3.525   48.5519
    3.660   75.3379
    3.795  168.8608
    3.930   28.5413
    4.065   10.1106
    4.200    8.8468
    4.335    7.9340
    4.470    8.2500
    4.605    7.8638
    4.740    8.4957
    4.875    8.6537
    5.010    9.2680
    5.145   10.9005
    5.280   14.3058
    5.415   26.9616
    5.550   10.4792
    5.685    6.9510
    5.820    7.0212
    5.955    6.7404
    6.090    6.7228
    6.225    6.9861
    6.360    7.2319
    6.495    8.3202
    6.630   10.1808
    6.765   10.0930
    6.900    6.9686
    7.035    6.4069
    7.170    7.2494
    7.305    6.7755
    7.440    7.1617
    7.575    8.1271
    7.710   11.9361
    7.845    7.0212
    7.980    6.2665
    8.115    5.9856
    8.250    6.0909
    8.385    6.0909
    8.520    6.2489
    8.655    7.1792
    8.790    6.6877
    8.925    6.2840
    9.060    7.1441
    9.195    7.5478
    9.330   10.2335
    9.465   19.9228
    9.600   11.8308
    9.735    6.1787
    9.870    6.7579
   10.005    6.9510
   10.140    8.0042
   10.275   15.5345
   10.410    6.0383
   10.545    5.9329
   10.680    6.1436
   10.815    6.8633
   10.950    9.7771
   11.085    7.9340
   11.220    5.9681
   11.355    6.1787
   11.490    6.8984
   11.625   10.0404
   11.760    8.7590
   11.895    5.8627
   12.030    5.7223
   12.165    6.2665
   12.300    6.4946
   12.435    5.3010
   12.570    5.3010
   12.705    6.4420
   12.840    8.1797
   12.975   11.1462
   13.110    5.7399
   13.245    5.8978
   13.380    6.2313
   13.515    8.7063
   13.650    5.7223
   13.785    5.5468
   13.920    5.8627
   14.055    9.1803
   14.190    5.6697
   14.325    5.7048
   14.460    5.6872
   14.595    6.3367
   14.730    5.4590
   14.865    5.7048
   15.000    6.1787
   15.135    7.1792
   15.270    5.9154
   15.405    5.7223
   15.540    5.3537
   15.675    5.3888
   15.810    5.7223
   15.945    5.8452
   16.080    7.0915
   16.215    6.2489
   16.350    5.4239
   16.485    6.2840
   16.620    7.7936
   16.755    5.7399
   16.890    6.4595
   17.025    9.7420
   17.160    6.2665
   17.295    5.9154
   17.430    6.3191
   17.565    6.2138
   17.700    5.9856
   17.835    6.2138
   17.970    6.1962
   18.105    5.7223
   18.240    6.6702
   18.375    7.3372
   18.510    6.1260
   18.645    6.0383
   18.780    6.3893
   18.915    5.7223
   19.050    6.2489
   19.185    6.3016
   19.320    5.8978
   19.455    6.1962
   19.590    7.3547
   19.725    6.0734
   19.860    5.5994
   19.995    6.3718
   20.130    6.0734
   20.265    7.2143
   20.400    9.5489
   20.535    5.8803
   20.670    6.2313
   20.805    6.6175
   20.940    6.4244
   21.075    6.0558
   21.210    5.8452
   21.345    5.8803
   21.480    5.8101
   21.615    6.3191
   21.750    6.3542
   21.885    7.5478
   22.020    6.0032
   22.155    7.4074
   22.290    7.0563
   22.425    6.5649
   22.560   11.4973
   22.695    7.0388
   22.830    8.7239
   22.965    9.0223
   23.100    6.6000
   23.235    8.1271
   23.370    6.2665
   23.505    6.8106
   23.640    6.2138
   23.775    6.4420
   23.910    8.4079
   24.045    6.6702
   24.180    6.1787
   24.315    5.8627
   24.450    6.0207
   24.585    6.7404
   24.720    5.8627
   24.855    6.3542
   24.990    6.0734
   25.125    6.6702
   25.260    7.1617
   25.395    6.6351
   25.530    6.9861
   25.665    6.3191
   25.800   10.1106
   25.935    6.5122
   26.070    5.9505
   26.205    5.9505
   26.340    6.0207
   26.475    6.7404
   26.610    6.0032
   26.745    5.9856
   26.880    6.3191
   27.015    8.1446
   27.150    6.0207
   27.285    5.6697
   27.420    5.8452
   27.555    6.7228
   27.690    6.2840
   27.825    6.3893
   27.960    6.0383
   28.095    6.8106
   28.230    6.9159
   28.365    5.9329
   28.500    6.6000
   28.635    5.9505
   28.770    6.1436
   28.905    5.9329
   29.040    5.4941
   29.175    5.7399
   29.310    6.8106
   29.445    5.7750
   29.580    5.3712
   29.715    6.0207
   29.850    5.9329
   29.985    5.7223
   30.120    5.6521
   30.255    5.4415
   30.390    5.3186
   30.525    6.1085
   30.660    6.0383
   30.795    5.3361
   30.930    5.2659
   31.065    5.4941
   31.200    5.4941
   31.335    6.0558
   31.470    5.8452
   31.605    5.0728
   31.740    5.6872
   31.875    5.7925
   32.010    4.7042
   32.145    5.1431
   32.280    4.9851
   32.415    5.1080
   32.550    4.7920
   32.685    4.7920
   32.820    4.9500
   32.955    4.9851
   33.090    4.5638
   33.225    4.5814
   33.360    5.2308
   33.495    4.6165
   33.630    4.8973
   33.765    5.1957
   33.900    5.5994
   34.035    5.3361
   34.170    4.6340
   34.305    4.4409
   34.440    4.8271
   34.575    4.5463
   34.710    4.8095
   34.845    4.8973
   34.980    4.6691
   35.115    4.6516
   35.250    4.4585
   35.385    4.6867
   35.520    4.4760
   35.655    4.3005
   35.790    4.8798
   35.925    4.5814
   36.060    4.4936
   36.195    4.7744
   36.330    4.7744
   36.465    4.5638
   36.600    4.6165
   36.735    4.7218
   36.870    4.5989
   37.005    4.3532
   37.140    4.7569
   37.275    4.3005
   37.410    4.3707
   37.545    4.4409
   37.680    4.5287
   37.815    4.6340
   37.950    4.5814
   38.085    4.3356
   38.220    4.3532
   38.355    4.7218
   38.490    4.6867
   38.625    4.3707
   38.760    4.3181
   38.895    4.1601
   39.030    4.1601
   39.165    4.0372
   39.300    4.3356
   39.435    4.7393
   39.570    4.2654
   39.705    4.5111
   39.840    4.2127
   39.975    4.2127
   39.990    4.2127