File: data/PXRD/PXRD_Blank_Co-Ka1_film-3mm_3s-deg.xyd
    1.500    3.1211
    1.695    2.6396
    1.890    2.3007
    2.085    2.4434
    2.280    2.1223
    2.475    1.5516
    2.670    1.9262
    2.865    1.7478
    3.060    1.4803
    3.255    1.3554
    3.450    1.5338
    3.645    1.6408
    3.840    1.7835
    4.035    1.6230
    4.230    1.4803
    4.425    1.5338
    4.620    1.6765
    4.815    1.4803
    5.010    1.6051
    5.205    1.3376
    5.400    1.4803
    5.595    1.4625
    5.790    1.6586
    5.985    1.5695
    6.180    1.9618
    6.375    2.2115
    6.570    2.0510
    6.765    1.9975
    6.960    1.8727
    7.155    1.3554
    7.350    1.2841
    7.545    1.6408
    7.740    1.4090
    7.935    1.1949
    8.130    1.5338
    8.325    1.3376
    8.520    1.1593
    8.715    1.0523
    8.910    1.1593
    9.105    0.9988
    9.300    1.0523
    9.495    0.9096
    9.690    1.0701
    9.885    0.8917
   10.080    0.9988
   10.275    0.9809
   10.470    0.9631
   10.665    0.7847
   10.860    0.9631
   11.055    0.8026
   11.250    0.7847
   11.445    0.9988
   11.640    0.7312
   11.835    1.0344
   12.030    0.8561
   12.225    0.8561
   12.420    0.7847
   12.615    0.8204
   12.810    0.9809
   13.005    0.9809
   13.200    1.0344
   13.395    0.9452
   13.590    0.8204
   13.785    0.8382
   13.980    0.9631
   14.175    0.8739
   14.370    0.7491
   14.565    0.8204
   14.760    0.7134
   14.955    0.5707
   15.150    0.8382
   15.345    0.8026
   15.540    0.9988
   15.735    0.7669
   15.930    0.7847
   16.125    0.8739
   16.320    0.8204
   16.515    0.8382
   16.710    0.8739
   16.905    1.1236
   17.100    0.9274
   17.295    0.9988
   17.490    0.8917
   17.685    0.6242
   17.880    0.7669
   18.075    0.8204
   18.270    0.7491
   18.465    0.8917
   18.660    0.8739
   18.855    0.6956
   19.050    0.6421
   19.245    0.7669
   19.440    0.7669
   19.635    0.7312
   19.830    0.8204
   20.025    0.6064
   20.220    0.7847
   20.415    0.6956
   20.610    0.9452
   20.805    0.8026
   21.000    0.6599
   21.195    0.6777
   21.390    0.8204
   21.585    0.8382
   21.780    0.8204
   21.975    0.7847
   22.170    0.7134
   22.365    0.6599
   22.560    0.7847
   22.755    0.7134
   22.950    0.8204
   23.145    0.5350
   23.340    0.6421
   23.535    0.6956
   23.730    0.4637
   23.925    0.6242
   24.120    0.4994
   24.315    0.6242
   24.510    0.6421
   24.705    0.4994
   24.900    0.5529
   25.095    0.4994
   25.290    0.5172
   25.485    0.6242
   25.680    0.6242
   25.875    0.5529
   26.070    0.7134
   26.265    0.5707
   26.460    0.6064
   26.655    0.6421
   26.850    0.6956
   27.045    0.5350
   27.240    0.6242
   27.435    0.5886
   27.630    0.4280
   27.825    0.4459
   28.020    0.5172
   28.215    0.6242
   28.410    0.6599
   28.605    0.6242
   28.800    0.6064
   28.995    0.6421
   29.190    0.6242
   29.385    0.4102
   29.580    0.4459
   29.775    0.4102
   29.970    0.6242
   30.165    0.3924
   30.360    0.4102
   30.555    0.5886
   30.750    0.4637
   30.945    0.4815
   31.140    0.4102
   31.335    0.4637
   31.530    0.5350
   31.725    0.4280
   31.920    0.3210
   32.115    0.4102
   32.310    0.4994
   32.505    0.4280
   32.700    0.3924
   32.895    0.3924
   33.090    0.3924
   33.285    0.3924
   33.480    0.3210
   33.675    0.3389
   33.870    0.3032
   34.065    0.4459
   34.260    0.4102
   34.455    0.3389
   34.650    0.3389
   34.845    0.4102
   35.040    0.4280
   35.235    0.2319
   35.430    0.2497
   35.625    0.2140
   35.820    0.4637
   36.015    0.2140
   36.210    0.3567
   36.405    0.1962
   36.600    0.2497
   36.795    0.3032
   36.990    0.2854
   37.185    0.3210
   37.380    0.2675
   37.575    0.3389
   37.770    0.3389
   37.965    0.2854
   38.160    0.2140
   38.355    0.2497
   38.550    0.2497
   38.745    0.2140
   38.940    0.1962
   39.135    0.3745
   39.330    0.2854
   39.525    0.1605
   39.720    0.2497
   39.915    0.2675
   40.110    0.1605
   40.305    0.2675
   40.500    0.2140
   40.695    0.1962
   40.890    0.1783
   41.085    0.1783
   41.280    0.1427
   41.475    0.2140
   41.670    0.2497
   41.865    0.2854
   42.060    0.3032
   42.255    0.2140
   42.450    0.1962
   42.645    0.3389
   42.840    0.1070
   43.035    0.2319
   43.230    0.1962
   43.425    0.2497
   43.620    0.1605
   43.815    0.1070
   44.010    0.1962
   44.205    0.2497
   44.400    0.1427
   44.595    0.2140
   44.790    0.2140
   44.985    0.2319
   45.180    0.2319
   45.375    0.2319
   45.570    0.1605
   45.765    0.1962
   45.960    0.1427
   46.155    0.3032
   46.350    0.1070
   46.545    0.2497
   46.740    0.2140
   46.935    0.1427
   47.130    0.1783
   47.325    0.1605
   47.520    0.1427
   47.715    0.1783
   47.910    0.1783
   48.105    0.2140
   48.300    0.1427
   48.495    0.1070
   48.690    0.1248
   48.885    0.1605
   49.080    0.0892
   49.275    0.1248
   49.470    0.2140
   49.665    0.0892
   49.860    0.1605
   50.055    0.1783
   50.250    0.1248
   50.445    0.1248
   50.640    0.1427
   50.835    0.1248
   51.030    0.1962
   51.225    0.1783
   51.420    0.1605
   51.615    0.0892
   51.810    0.1248
   52.005    0.1605
   52.200    0.1427
   52.395    0.1070
   52.590    0.1783
   52.785    0.1962
   52.980    0.1605
   53.175    0.1783
   53.370    0.1427
   53.565    0.0713
   53.760    0.1783
   53.955    0.1605
   54.150    0.1605
   54.345    0.1783
   54.540    0.0535
   54.735    0.1248
   54.930    0.1605
   55.125    0.0713
   55.320    0.1070
   55.515    0.1427
   55.710    0.1248
   55.905    0.1605
   56.100    0.0892
   56.295    0.1070
   56.490    0.1427
   56.685    0.1605
   56.880    0.0892
   57.075    0.0713
   57.270    0.1070
   57.465    0.0892
   57.660    0.0892
   57.855    0.0892
   58.050    0.1427
   58.245    0.1248
   58.440    0.1427
   58.635    0.1070
   58.830    0.0713
   59.025    0.1605
   59.220    0.1783
   59.415    0.0713
   59.610    0.1427
   59.805    0.1427
   59.985    0.1427