File: data/PXRD/PXRD_KE-293_Cu-Ka1_film-3mm_3s-deg.xyd
    1.500   13.6739
    1.635   13.1648
    1.770   11.7606
    1.905   11.2515
    2.040   10.7776
    2.175   10.3388
    2.310    9.5138
    2.445   10.1106
    2.580   10.2335
    2.715   11.5675
    2.850   13.1999
    2.985   17.9393
    3.120   30.8583
    3.255   18.6589
    3.390   13.2877
    3.525   14.7095
    3.660   17.6058
    3.795   19.8877
    3.930   12.1643
    4.065    9.1803
    4.200    8.5659
    4.335    8.3904
    4.470    8.3026
    4.605    8.4255
    4.740    8.0920
    4.875    8.7239
    5.010    8.8117
    5.145    8.9872
    5.280    9.7771
    5.415   10.0053
    5.550    9.9702
    5.685    9.4787
    5.820    8.9521
    5.955    7.9164
    6.090    7.8638
    6.225    8.5484
    6.360    9.6542
    6.495    8.6010
    6.630    8.0569
    6.765    6.8633
    6.900    6.4244
    7.035    7.0037
    7.170    7.1090
    7.305    6.4946
    7.440    6.6702
    7.575    6.8633
    7.710    6.6526
    7.845    6.3893
    7.980    6.3718
    8.115    5.2835
    8.250    5.5292
    8.385    5.5468
    8.520    5.6872
    8.655    5.5468
    8.790    5.4941
    8.925    5.2133
    9.060    5.3361
    9.195    5.5819
    9.330    5.4239
    9.465    5.4941
    9.600    5.5292
    9.735    4.9149
    9.870    5.5117
   10.005    5.6872
   10.140    5.5994
   10.275    5.3712
   10.410    5.6872
   10.545    5.2835
   10.680    5.8452
   10.815    5.5819
   10.950    5.4941
   11.085    5.4766
   11.220    5.1782
   11.355    5.3010
   11.490    5.8452
   11.625    5.0904
   11.760    4.8798
   11.895    5.4941
   12.030    5.5819
   12.165    5.1957
   12.300    5.4064
   12.435    4.7393
   12.570    4.9149
   12.705    4.9675
   12.840    5.0553
   12.975    5.0728
   13.110    4.5989
   13.245    4.8095
   13.380    5.3888
   13.515    4.6340
   13.650    4.9500
   13.785    5.0728
   13.920    5.0026
   14.055    5.3361
   14.190    5.2133
   14.325    5.4415
   14.460    5.4590
   14.595    5.3010
   14.730    5.4766
   14.865    5.3186
   15.000    5.1431
   15.135    5.0728
   15.270    4.7744
   15.405    4.6165
   15.540    5.5292
   15.675    4.9500
   15.810    4.8447
   15.945    4.9324
   16.080    4.7218
   16.215    4.9324
   16.350    5.0553
   16.485    4.5814
   16.620    4.6867
   16.755    4.6691
   16.890    4.8973
   17.025    4.6516
   17.160    4.6340
   17.295    4.8622
   17.430    4.6165
   17.565    5.2484
   17.700    4.5111
   17.835    5.0904
   17.970    4.5989
   18.105    4.7218
   18.240    4.8271
   18.375    4.6867
   18.510    4.9324
   18.645    4.2654
   18.780    4.6867
   18.915    5.2133
   19.050    5.2659
   19.185    4.9324
   19.320    4.6867
   19.455    4.9851
   19.590    4.1250
   19.725    5.0553
   19.860    4.3883
   19.995    4.4760
   20.130    4.6867
   20.265    4.1776
   20.400    4.5814
   20.535    4.2127
   20.670    4.4585
   20.805    3.9670
   20.940    4.2303
   21.075    4.7042
   21.210    4.4058
   21.345    4.7744
   21.480    4.5638
   21.615    4.8622
   21.750    4.5111
   21.885    4.4409
   22.020    4.6867
   22.155    4.2478
   22.290    4.4760
   22.425    4.5638
   22.560    4.6340
   22.695    4.5287
   22.830    3.8441
   22.965    4.3883
   23.100    5.4415
   23.235    4.1074
   23.370    4.2127
   23.505    4.2654
   23.640    3.8441
   23.775    3.9319
   23.910    3.9846
   24.045    4.1601
   24.180    4.1250
   24.315    4.0899
   24.450    4.0723
   24.585    4.1601
   24.720    4.1601
   24.855    3.4931
   24.990    3.9319
   25.125    3.7915
   25.260    3.5282
   25.395    3.9846
   25.530    4.0723
   25.665    3.5106
   25.800    3.7388
   25.935    3.4755
   26.070    3.3526
   26.205    3.5282
   26.340    3.2122
   26.475    4.0197
   26.610    3.6159
   26.745    3.5282
   26.880    3.6159
   27.015    3.3000
   27.150    3.8090
   27.285    3.4404
   27.420    3.5808
   27.555    3.0542
   27.690    3.8090
   27.825    3.4229
   27.960    4.8798
   28.095    3.7213
   28.230    3.4053
   28.365    3.6159
   28.500    3.2824
   28.635    3.2649
   28.770    3.6159
   28.905    3.7564
   29.040    3.2824
   29.175    3.2122
   29.310    3.1771
   29.445    3.3702
   29.580    3.2122
   29.715    2.7909
   29.850    2.9665
   29.985    3.2473
   30.120    2.8787
   30.255    2.7909
   30.390    2.9840
   30.525    3.0191
   30.660    2.7558
   30.795    2.9665
   30.930    2.9138
   31.065    2.8436
   31.200    2.6856
   31.335    2.9314
   31.470    2.4925
   31.605    2.6681
   31.740    3.3351
   31.875    3.2649
   32.010    2.9665
   32.145    4.9675
   32.280    2.5979
   32.415    2.8787
   32.550    2.5101
   32.685    2.7032
   32.820    2.7558
   32.955    2.6681
   33.090    2.4750
   33.225    2.7558
   33.360    2.6330
   33.495    2.1941
   33.630    2.6330
   33.765    3.1245
   33.900    2.4048
   34.035    2.4574
   34.170    2.3697
   34.305    2.1766
   34.440    2.2643
   34.575    2.7032
   34.710    2.2292
   34.845    2.4048
   34.980    2.5452
   35.115    2.3346
   35.250    2.6154
   35.385    2.5276
   35.520    2.5101
   35.655    2.5979
   35.790    2.5803
   35.925    2.2643
   36.060    2.3346
   36.195    2.5803
   36.330    2.4223
   36.465    2.4750
   36.600    2.4750
   36.735    2.3170
   36.870    2.4750
   37.005    2.4048
   37.140    2.5979
   37.275    2.2643
   37.410    2.5452
   37.545    2.2995
   37.680    2.2819
   37.815    2.3346
   37.950    2.2995
   38.085    2.4574
   38.220    2.1064
   38.355    2.4223
   38.490    2.2643
   38.625    2.7909
   38.760    2.3872
   38.895    2.2995
   39.030    2.3872
   39.165    2.1590
   39.300    1.9835
   39.435    2.1239
   39.570    2.2643
   39.705    2.3346
   39.840    2.1590
   39.975    2.1415
   39.990    2.2819