File: data/PXRD/PXRD_KE-059_Cu-Ka1_capillary-1mm_5s-deg.xyd
    1.500   39.9473
    1.635   37.7567
    1.770   34.0916
    1.905   31.7114
    2.040   30.8057
    2.175   28.7730
    2.310   27.5829
    2.445   26.7931
    2.580   26.7825
    2.715   26.2559
    2.850   26.7509
    2.985   29.0469
    3.120   31.8589
    3.255   36.2928
    3.390   46.2454
    3.525   58.2307
    3.660   81.7272
    3.795  128.7415
    3.930  264.4445
    4.065   16.8299
    4.200   12.2275
    4.335   11.2059
    4.470   10.9321
    4.605   11.2796
    4.740   11.1216
    4.875   11.7536
    5.010   13.5229
    5.145   15.7662
    5.280   21.1585
    5.415   32.9331
    5.550   65.4450
    5.685    9.4892
    5.820    8.3518
    5.955    7.8989
    6.090    8.2464
    6.225    8.3518
    6.360    8.5835
    6.495    9.5103
    6.630   11.3849
    6.765   19.7156
    6.900    7.7093
    7.035    7.4355
    7.170    7.3618
    7.305    7.5408
    7.440    8.2886
    7.575    9.2786
    7.710   11.9747
    7.845   20.9057
    7.980    7.2565
    8.115    7.0037
    8.250    6.8668
    8.385    7.1722
    8.520    7.0563
    8.655    7.5829
    8.790    7.7830
    8.925    6.7404
    9.060    6.6772
    9.195    8.2359
    9.330    9.3944
    9.465   13.8283
    9.600   32.8805
    9.735    7.2354
    9.870    7.2354
   10.005    6.9089
   10.140    7.6988
   10.275   10.5424
   10.410   13.2175
   10.545    6.6561
   10.680    6.3928
   10.815    6.8562
   10.950    8.6361
   11.085   14.1548
   11.220    6.9721
   11.355    6.6456
   11.490    6.5087
   11.625    8.3834
   11.760   15.2923
   11.895    6.3928
   12.030    6.4666
   12.165    6.6772
   12.300    6.7825
   12.435    7.2880
   12.570    6.1295
   12.705    5.9926
   12.840    7.1827
   12.975   11.2164
   13.110    6.5929
   13.245    6.1506
   13.380    6.0558
   13.515    7.5513
   13.650    8.0358
   13.785    6.0453
   13.920    6.0874
   14.055    8.0990
   14.190    9.6472
   14.325    6.4876
   14.460    5.7083
   14.595    5.9716
   14.730    5.8873
   14.865    5.9821
   15.000    6.2770
   15.135    6.2665
   15.270    6.8352
   15.405    5.8873
   15.540    6.3086
   15.675    5.8241
   15.810    5.8662
   15.945    5.8557
   16.080    6.0348
   16.215    7.1511
   16.350    5.8557
   16.485    6.0137
   16.620    6.8773
   16.755    6.8457
   16.890    6.0769
   17.025    7.2775
   17.160    9.9315
   17.295    6.4139
   17.430    6.3296
   17.565    7.0458
   17.700    5.9189
   17.835    5.9189
   17.970    6.4455
   18.105    6.1506
   18.240    5.6556
   18.375    6.8246
   18.510    6.2033
   18.645    6.1927
   18.780    6.2454
   18.915    6.5298
   19.050    6.1611
   19.185    5.8347
   19.320    5.7399
   19.455    6.2875
   19.590    6.9510
   19.725    6.8457
   19.860    5.9716
   19.995    6.2875
   20.130    6.1085
   20.265    6.3718
   20.400    8.2886
   20.535    7.6567
   20.670    6.2665
   20.805    5.9610
   20.940    6.1506
   21.075    6.2138
   21.210    5.9610
   21.345    6.1927
   21.480    6.1085
   21.615    6.2138
   21.750    6.3928
   21.885    6.6667
   22.020    6.4876
   22.155    6.1927
   22.290    7.2880
   22.425    6.8352
   22.560    8.2149
   22.695    8.9837
   22.830    6.8141
   22.965    9.6577
   23.100    6.6245
   23.235    6.4560
   23.370    7.3091
   23.505    6.3086
   23.640    6.4876
   23.775    5.9505
   23.910    6.1506
   24.045    6.8562
   24.180    6.2981
   24.315    6.5719
   24.450    5.9189
   24.585    6.4034
   24.720    6.2665
   24.855    5.6345
   24.990    6.1295
   25.125    5.9821
   25.260    6.2559
   25.395    6.1190
   25.530    6.1506
   25.665    6.1085
   25.800    7.1617
   25.935    8.0990
   26.070    6.2559
   26.205    5.8768
   26.340    5.5292
   26.475    6.3086
   26.610    5.7083
   26.745    5.3818
   26.880    5.4344
   27.015    6.2770
   27.150    6.6456
   27.285    5.9610
   27.420    5.4239
   27.555    5.7609
   27.690    6.4244
   27.825    5.5608
   27.960    6.3296
   28.095    5.8452
   28.230    6.7720
   28.365    6.1822
   28.500    6.5403
   28.635    6.0558
   28.770    5.4555
   28.905    5.0448
   29.040    5.8241
   29.175    5.4344
   29.310    5.9926
   29.445    5.6977
   29.580    5.4134
   29.715    5.4028
   29.850    5.7715
   29.985    5.6661
   30.120    5.1711
   30.255    5.6029
   30.390    5.5187
   30.525    5.3923
   30.660    6.0137
   30.795    5.2133
   30.930    5.2975
   31.065    5.3291
   31.200    5.4134
   31.335    5.3502
   31.470    5.1080
   31.605    5.4028
   31.740    5.3186
   31.875    5.3818
   32.010    5.5187
   32.145    5.4344
   32.280    5.0869
   32.415    4.8025
   32.550    4.8868
   32.685    4.9710
   32.820    5.1395
   32.955    5.0237
   33.090    4.6551
   33.225    4.8447
   33.360    4.6340
   33.495    4.8763
   33.630    5.0132
   33.765    5.2449
   33.900    5.4239
   34.035    5.3397
   34.170    5.0553
   34.305    5.0448
   34.440    4.9500
   34.575    4.3918
   34.710    4.8763
   34.845    5.0448
   34.980    4.7183
   35.115    4.5182
   35.250    4.4444
   35.385    4.7499
   35.520    4.4971
   35.655    4.6867
   35.790    4.4655
   35.925    4.6761
   36.060    4.7077
   36.195    4.4655
   36.330    4.5919
   36.465    4.4760
   36.600    4.4023
   36.735    4.7183
   36.870    4.5919
   37.005    4.2549
   37.140    4.4760
   37.275    4.8868
   37.410    4.5603
   37.545    4.0758
   37.680    4.3181
   37.815    4.6130
   37.950    4.3497
   38.085    4.6024
   38.220    4.1917
   38.355    4.1601
   38.490    4.4760
   38.625    4.7815
   38.760    4.4550
   38.895    4.3391
   39.030    4.2127
   39.165    3.8652
   39.300    4.5392
   39.435    4.7393
   39.570    4.5498
   39.705    4.4128
   39.840    4.3497
   39.975    4.1706
   39.990    4.3181