File: data/PXRD/PXRD_KE-181-2_Co-Ka1_film-3mm_5s-deg.xyd
    1.500    5.4575
    1.635    4.6014
    1.770    4.0342
    1.905    3.7025
    2.040    3.2852
    2.175    3.1568
    2.310    2.9106
    2.445    2.6217
    2.580    2.0332
    2.715    2.3328
    2.850    2.2044
    2.985    2.1616
    3.120    1.9262
    3.255    1.7335
    3.390    1.7335
    3.525    1.9690
    3.660    1.7228
    3.795    1.9690
    3.930    1.7335
    4.065    2.6217
    4.200    3.8844
    4.335    7.5120
    4.470   20.0107
    4.605    3.8737
    4.740    1.6693
    4.875    1.5730
    5.010    1.7014
    5.145    1.6800
    5.280    1.4446
    5.415    1.4125
    5.550    1.6051
    5.685    1.5195
    5.820    1.5730
    5.955    1.8620
    6.090    1.7871
    6.225    2.6966
    6.360    4.6977
    6.495    2.5682
    6.630    1.8513
    6.765    1.7764
    6.900    1.6372
    7.035    1.4767
    7.170    1.3911
    7.305    1.4446
    7.440    1.3590
    7.575    1.2627
    7.710    1.4981
    7.845    1.6907
    7.980    1.2413
    8.115    1.2413
    8.250    1.1022
    8.385    1.1129
    8.520    1.3697
    8.655    1.2734
    8.790    0.9952
    8.925    1.0487
    9.060    2.1081
    9.195    1.1771
    9.330    0.9738
    9.465    1.1450
    9.600    0.9738
    9.735    0.9310
    9.870    0.8775
   10.005    1.1236
   10.140    1.2413
   10.275    1.0166
   10.410    0.9952
   10.545    0.8775
   10.680    0.8775
   10.815    0.8240
   10.950    0.9096
   11.085    1.7442
   11.220    0.9845
   11.355    0.8347
   11.490    0.8989
   11.625    0.9631
   11.760    0.7705
   11.895    0.9952
   12.030    1.6907
   12.165    0.9952
   12.300    0.8668
   12.435    0.9203
   12.570    1.0166
   12.705    1.1022
   12.840    1.4339
   12.975    0.9952
   13.110    0.9845
   13.245    1.1236
   13.380    0.8561
   13.515    0.9310
   13.650    2.0439
   13.785    1.0701
   13.920    0.8989
   14.055    0.8668
   14.190    0.8882
   14.325    0.8561
   14.460    0.8989
   14.595    0.8133
   14.730    0.6742
   14.865    0.7598
   15.000    0.8240
   15.135    1.3804
   15.270    0.7812
   15.405    0.8668
   15.540    0.9203
   15.675    0.8240
   15.810    1.1985
   15.945    0.6956
   16.080    0.7384
   16.215    0.7384
   16.350    0.8347
   16.485    1.1985
   16.620    0.9524
   16.755    0.9310
   16.890    0.8668
   17.025    0.9952
   17.160    0.7919
   17.295    0.7812
   17.430    0.8668
   17.565    0.7919
   17.700    1.0166
   17.835    0.7919
   17.970    0.8668
   18.105    0.8561
   18.240    0.8775
   18.375    0.8240
   18.510    0.8882
   18.645    0.7277
   18.780    0.8775
   18.915    0.8882
   19.050    0.7170
   19.185    0.7277
   19.320    0.9096
   19.455    0.6742
   19.590    0.6956
   19.725    0.6849
   19.860    1.0059
   19.995    0.7063
   20.130    0.8347
   20.265    0.6849
   20.400    0.8026
   20.535    0.7491
   20.670    0.8775
   20.805    0.7705
   20.940    0.8454
   21.075    0.7705
   21.210    0.7812
   21.345    0.6635
   21.480    0.9631
   21.615    0.8454
   21.750    0.7277
   21.885    0.6742
   22.020    0.7598
   22.155    0.7598
   22.290    0.7705
   22.425    0.6635
   22.560    0.6742
   22.695    0.6956
   22.830    0.8989
   22.965    0.6956
   23.100    0.7063
   23.235    0.7919
   23.370    0.8240
   23.505    0.7705
   23.640    0.8347
   23.775    0.8882
   23.910    0.6314
   24.045    0.7812
   24.180    0.6635
   24.315    0.6100
   24.450    0.6742
   24.585    0.6314
   24.720    0.6635
   24.855    0.6956
   24.990    0.7598
   25.125    0.7705
   25.260    0.6314
   25.395    0.5993
   25.530    0.9096
   25.665    0.6314
   25.800    0.6528
   25.935    0.7384
   26.070    0.6421
   26.205    0.6849
   26.340    0.9524
   26.475    0.6314
   26.610    0.7491
   26.745    1.0808
   26.880    0.6314
   27.015    0.6207
   27.150    0.6956
   27.285    0.7277
   27.420    0.5993
   27.555    0.5993
   27.690    0.5886
   27.825    0.6421
   27.960    0.9310
   28.095    0.5243
   28.230    0.5564
   28.365    0.4815
   28.500    0.4815
   28.635    0.5886
   28.770    0.5671
   28.905    0.4601
   29.040    0.4280
   29.175    0.5671
   29.310    0.5564
   29.445    0.5993
   29.580    0.5778
   29.715    0.4815
   29.850    0.6742
   29.985    0.6956
   30.120    0.5993
   30.255    0.5993
   30.390    0.4387
   30.525    0.5993
   30.660    0.5350
   30.795    0.5243
   30.930    0.5564
   31.065    0.4494
   31.200    0.4708
   31.335    0.5136
   31.470    0.4601
   31.605    0.5243
   31.740    0.3852
   31.875    0.4387
   32.010    0.4494
   32.145    0.5136
   32.280    0.4922
   32.415    0.3210
   32.550    0.3852
   32.685    0.3959
   32.820    0.3959
   32.955    0.5564
   33.090    0.3638
   33.225    0.4066
   33.360    0.2996
   33.495    0.4066
   33.630    0.4922
   33.765    0.4173
   33.900    0.4815
   34.035    0.4601
   34.170    0.3638
   34.305    0.4815
   34.440    0.3959
   34.575    0.4066
   34.710    0.3959
   34.845    0.3424
   34.980    0.4066
   35.115    0.3745
   35.250    0.4280
   35.385    0.4494
   35.520    0.3852
   35.655    0.3424
   35.790    0.3638
   35.925    0.3638
   36.060    0.3317
   36.195    0.3210
   36.330    0.4387
   36.465    0.2996
   36.600    0.2782
   36.735    0.3210
   36.870    0.3103
   37.005    0.4601
   37.140    0.2247
   37.275    0.2996
   37.410    0.3317
   37.545    0.2568
   37.680    0.3959
   37.815    0.2782
   37.950    0.2568
   38.085    0.2782
   38.220    0.2782
   38.355    0.2889
   38.490    0.3103
   38.625    0.3210
   38.760    0.3531
   38.895    0.2140
   39.030    0.2996
   39.165    0.3638
   39.300    0.3210
   39.435    0.2675
   39.570    0.2889
   39.705    0.3317
   39.840    0.3103
   39.975    0.2996
   39.990    0.2782