File: data/PXRD/PXRD_KE-035_Cu-Ka1_film-3mm_5s-deg.xyd
    1.500   11.4271
    1.635   10.3949
    1.770    9.7525
    1.905    9.7420
    2.040    8.8889
    2.175    8.4150
    2.310    7.9516
    2.445    8.2675
    2.580    8.1938
    2.715    7.8989
    2.850    8.1411
    2.985    9.8157
    3.120   11.5008
    3.255   13.9021
    3.390   18.3360
    3.525   21.2533
    3.660   16.1664
    3.795   15.0606
    3.930   13.8705
    4.065   10.9953
    4.200    8.7098
    4.335    8.5624
    4.470    7.1511
    4.605    7.0563
    4.740    6.5403
    4.875    6.8352
    5.010    6.8352
    5.145    7.2354
    5.280    7.6356
    5.415    8.6256
    5.550    8.1517
    5.685    8.2991
    5.820    7.6883
    5.955    7.2354
    6.090    6.3296
    6.225    6.4034
    6.360    5.9400
    6.495    5.7609
    6.630    5.7609
    6.765    6.2243
    6.900    6.2875
    7.035    6.8668
    7.170    5.9716
    7.305    5.5398
    7.440    4.7815
    7.575    5.4660
    7.710    5.3186
    7.845    5.5082
    7.980    5.1817
    8.115    4.5498
    8.250    4.1811
    8.385    4.2549
    8.520    4.3707
    8.655    3.7809
    8.790    4.0548
    8.925    3.9073
    9.060    3.8020
    9.195    3.8336
    9.330    3.4650
    9.465    3.4860
    9.600    3.7809
    9.735    3.6019
    9.870    3.6756
   10.005    3.8652
   10.140    4.0864
   10.275    3.6440
   10.410    3.4650
   10.545    4.0758
   10.680    3.8863
   10.815    3.8125
   10.950    4.0232
   11.085    4.0864
   11.220    3.7704
   11.355    4.2233
   11.490    4.1074
   11.625    3.9705
   11.760    3.8547
   11.895    4.0337
   12.030    4.1917
   12.165    3.6651
   12.300    3.6546
   12.435    3.7177
   12.570    3.8020
   12.705    3.5703
   12.840    4.0021
   12.975    3.7493
   13.110    3.6440
   13.245    3.5598
   13.380    3.6335
   13.515    3.6230
   13.650    3.6546
   13.785    3.7704
   13.920    3.7809
   14.055    4.0653
   14.190    4.0653
   14.325    4.1074
   14.460    4.2127
   14.595    4.2022
   14.730    3.9494
   14.865    3.8441
   15.000    3.7493
   15.135    3.6019
   15.270    3.7493
   15.405    3.6967
   15.540    3.4439
   15.675    3.3281
   15.810    3.6651
   15.945    3.6546
   16.080    3.4650
   16.215    3.3281
   16.350    3.4439
   16.485    3.6546
   16.620    3.2438
   16.755    3.5808
   16.890    3.6546
   17.025    3.5808
   17.160    3.3175
   17.295    3.4860
   17.430    3.8652
   17.565    3.5598
   17.700    3.0964
   17.835    3.8020
   17.970    3.4334
   18.105    3.4860
   18.240    3.5598
   18.375    3.7599
   18.510    3.6756
   18.645    3.4123
   18.780    3.8757
   18.915    3.2122
   19.050    3.6756
   19.185    3.5808
   19.320    3.3597
   19.455    3.3386
   19.590    3.2754
   19.725    3.5387
   19.860    3.2965
   19.995    3.2649
   20.130    3.2859
   20.265    3.4439
   20.400    3.4439
   20.535    3.0858
   20.670    3.2122
   20.805    3.3386
   20.940    3.2122
   21.075    3.0332
   21.210    3.2122
   21.345    3.3491
   21.480    3.1701
   21.615    3.2333
   21.750    3.1385
   21.885    3.5387
   22.020    3.0542
   22.155    3.0226
   22.290    3.0753
   22.425    2.8120
   22.560    2.9805
   22.695    3.1490
   22.830    3.1701
   22.965    3.0437
   23.100    2.7172
   23.235    2.8647
   23.370    2.7383
   23.505    2.6751
   23.640    2.8120
   23.775    2.8647
   23.910    2.9068
   24.045    2.7488
   24.180    2.5698
   24.315    2.8436
   24.450    2.3802
   24.585    2.7909
   24.720    2.9173
   24.855    2.6962
   24.990    2.7488
   25.125    2.3275
   25.260    2.2959
   25.395    2.3591
   25.530    2.8120
   25.665    2.6751
   25.800    2.4329
   25.935    2.3381
   26.070    2.6751
   26.205    2.4118
   26.340    2.4855
   26.475    2.2328
   26.610    2.2433
   26.745    2.3907
   26.880    2.6330
   27.015    2.3275
   27.150    2.2959
   27.285    2.3697
   27.420    2.1696
   27.555    2.3381
   27.690    2.1590
   27.825    2.4750
   27.960    2.1696
   28.095    2.2854
   28.230    2.1169
   28.365    2.3591
   28.500    2.1696
   28.635    2.0011
   28.770    2.1380
   28.905    2.4329
   29.040    2.0011
   29.175    2.2854
   29.310    2.1801
   29.445    2.0958
   29.580    2.0221
   29.715    1.9800
   29.850    1.9905
   29.985    1.8536
   30.120    1.8852
   30.255    1.8009
   30.390    1.8325
   30.525    1.8852
   30.660    1.8536
   30.795    1.7799
   30.930    1.7272
   31.065    1.8747
   31.200    1.8747
   31.335    1.7483
   31.470    1.7483
   31.605    1.8641
   31.740    1.7694
   31.875    1.7167
   32.010    1.6746
   32.145    1.7694
   32.280    1.6219
   32.415    1.5692
   32.550    1.5377
   32.685    1.6746
   32.820    1.7272
   32.955    1.6746
   33.090    1.5166
   33.225    1.5061
   33.360    1.6219
   33.495    1.3691
   33.630    1.3797
   33.765    1.6430
   33.900    1.4534
   34.035    1.5166
   34.170    1.4323
   34.305    1.4534
   34.440    1.3797
   34.575    1.5166
   34.710    1.6219
   34.845    1.4955
   34.980    1.5692
   35.115    1.3902
   35.250    1.3060
   35.385    1.4534
   35.520    1.5798
   35.655    1.3797
   35.790    1.4323
   35.925    1.4323
   36.060    1.5377
   36.195    1.4534
   36.330    1.5798
   36.465    1.4323
   36.600    1.4007
   36.735    1.4323
   36.870    1.3797
   37.005    1.4534
   37.140    1.5061
   37.275    1.2744
   37.410    1.5903
   37.545    1.3691
   37.680    1.3270
   37.815    1.3165
   37.950    1.3270
   38.085    1.4639
   38.220    1.3481
   38.355    1.3270
   38.490    1.2954
   38.625    1.3060
   38.760    1.3691
   38.895    1.4218
   39.030    1.3060
   39.165    1.2954
   39.300    1.3902
   39.435    1.3270
   39.570    1.3375
   39.705    1.4113
   39.840    1.5271
   39.975    1.3586
   39.990    1.3165