File: data/PXRD/PXRD_KE-201_Cu-Ka1_capillary-1mm_5s-deg.xyd
    1.500   13.5334
    1.635   10.9110
    1.770    8.6888
    1.905    7.6040
    2.040    6.4455
    2.175    5.7820
    2.310    5.0132
    2.445    4.3918
    2.580    4.0021
    2.715    3.9284
    2.850    3.5808
    2.985    3.3175
    3.120    3.1385
    3.255    3.0648
    3.390    2.5592
    3.525    2.8752
    3.660    2.7488
    3.795    2.7383
    3.930    2.5698
    4.065    2.6224
    4.200    2.4434
    4.335    2.4750
    4.470    2.4434
    4.605    2.3802
    4.740    2.2643
    4.875    2.5592
    5.010    2.6962
    5.145    2.3591
    5.280    2.4961
    5.415    2.3170
    5.550    2.3591
    5.685    2.1169
    5.820    2.2012
    5.955    2.2222
    6.090    2.5487
    6.225    2.2959
    6.360    2.3802
    6.495    2.2854
    6.630    2.3697
    6.765    2.1485
    6.900    2.4329
    7.035    2.2959
    7.170    2.5698
    7.305    2.3065
    7.440    2.4645
    7.575    2.3381
    7.710    2.4855
    7.845    2.2222
    7.980    2.6014
    8.115    2.2117
    8.250    2.2959
    8.385    2.3275
    8.520    2.2749
    8.655    2.3802
    8.790    2.3275
    8.925    2.1380
    9.060    2.1590
    9.195    2.2012
    9.330    2.1696
    9.465    2.2012
    9.600    1.9484
    9.735    2.1801
    9.870    2.2012
   10.005    2.0748
   10.140    2.1906
   10.275    2.2328
   10.410    2.0642
   10.545    2.1906
   10.680    2.1064
   10.815    2.0853
   10.950    1.9589
   11.085    2.2117
   11.220    1.9273
   11.355    2.0958
   11.490    2.2854
   11.625    1.8431
   11.760    1.7799
   11.895    1.9589
   12.030    1.8536
   12.165    1.9063
   12.300    1.9273
   12.435    1.7799
   12.570    2.0116
   12.705    1.8641
   12.840    1.8747
   12.975    1.9063
   13.110    2.1380
   13.245    1.8641
   13.380    1.9589
   13.515    2.0011
   13.650    2.1380
   13.785    1.8431
   13.920    1.8325
   14.055    2.0537
   14.190    1.9168
   14.325    1.9484
   14.460    1.9589
   14.595    1.7694
   14.730    1.8325
   14.865    2.1169
   15.000    1.8431
   15.135    2.0116
   15.270    1.9800
   15.405    1.8220
   15.540    1.8325
   15.675    1.9695
   15.810    1.9168
   15.945    1.9168
   16.080    1.8747
   16.215    1.8536
   16.350    1.8009
   16.485    1.9168
   16.620    1.8431
   16.755    1.8852
   16.890    2.0011
   17.025    1.9273
   17.160    1.9484
   17.295    2.0748
   17.430    1.8852
   17.565    1.8747
   17.700    2.0748
   17.835    1.7588
   17.970    1.7799
   18.105    2.2012
   18.240    2.0642
   18.375    2.1801
   18.510    2.0326
   18.645    1.8957
   18.780    2.0432
   18.915    2.0432
   19.050    2.1274
   19.185    1.8536
   19.320    2.0011
   19.455    1.8115
   19.590    2.0432
   19.725    2.0011
   19.860    2.2854
   19.995    2.0537
   20.130    2.0853
   20.265    2.2749
   20.400    1.9484
   20.535    2.0537
   20.670    2.0642
   20.805    1.8431
   20.940    2.0853
   21.075    2.1696
   21.210    2.2012
   21.345    2.0011
   21.480    2.0748
   21.615    2.0537
   21.750    2.2117
   21.885    2.0011
   22.020    1.9589
   22.155    2.0958
   22.290    2.0537
   22.425    2.0642
   22.560    1.9273
   22.695    2.2328
   22.830    2.0853
   22.965    2.0748
   23.100    1.7904
   23.235    2.0432
   23.370    1.8220
   23.505    2.0642
   23.640    2.0011
   23.775    1.8957
   23.910    1.9484
   24.045    1.8009
   24.180    1.9168
   24.315    1.8747
   24.450    1.9273
   24.585    1.9589
   24.720    1.8536
   24.855    2.0432
   24.990    1.8641
   25.125    2.0011
   25.260    1.8431
   25.395    1.9063
   25.530    1.8115
   25.665    1.6430
   25.800    1.9484
   25.935    1.7062
   26.070    1.7062
   26.205    1.6535
   26.340    1.7799
   26.475    1.8220
   26.610    1.6851
   26.745    1.6640
   26.880    1.7272
   27.015    1.7062
   27.150    1.5482
   27.285    1.7272
   27.420    1.8431
   27.555    1.8747
   27.690    1.5587
   27.825    1.5587
   27.960    1.4534
   28.095    1.4639
   28.230    1.5166
   28.365    1.6851
   28.500    1.7167
   28.635    1.5061
   28.770    1.5061
   28.905    1.3060
   29.040    1.5061
   29.175    1.5587
   29.310    1.4113
   29.445    1.3586
   29.580    1.4113
   29.715    1.4007
   29.850    1.3375
   29.985    1.3797
   30.120    1.6956
   30.255    1.4113
   30.390    1.4113
   30.525    1.4218
   30.660    1.3586
   30.795    1.2849
   30.930    1.2006
   31.065    1.1901
   31.200    1.3165
   31.335    1.2006
   31.470    1.1480
   31.605    1.3375
   31.740    1.3165
   31.875    1.1480
   32.010    1.0953
   32.145    1.2217
   32.280    1.1374
   32.415    1.2112
   32.550    1.2322
   32.685    1.1901
   32.820    1.1901
   32.955    1.1585
   33.090    1.0111
   33.225    1.0953
   33.360    1.0427
   33.495    1.0848
   33.630    1.0321
   33.765    0.9373
   33.900    0.8847
   34.035    1.0742
   34.170    0.9584
   34.305    0.9584
   34.440    1.0111
   34.575    1.1164
   34.710    1.0532
   34.845    0.9479
   34.980    0.8425
   35.115    1.0427
   35.250    0.9057
   35.385    0.8952
   35.520    1.0111
   35.655    0.9268
   35.790    1.0321
   35.925    0.8320
   36.060    0.8425
   36.195    0.8215
   36.330    0.8215
   36.465    0.9689
   36.600    0.8425
   36.735    0.9584
   36.870    0.8215
   37.005    0.8741
   37.140    0.7583
   37.275    0.8847
   37.410    0.7794
   37.545    0.7162
   37.680    0.8320
   37.815    0.8110
   37.950    0.7583
   38.085    0.9268
   38.220    0.7794
   38.355    0.8952
   38.490    0.7372
   38.625    0.7162
   38.760    0.8531
   38.895    0.7899
   39.030    0.8425
   39.165    0.6424
   39.300    0.7583
   39.435    0.8215
   39.570    0.7794
   39.705    0.6846
   39.840    0.7372
   39.975    0.7794
   39.990    0.6635