File: data/PXRD/PXRD_KE-302Ink_Cu-Ka1_film-3mm_3s-deg.xyd
    1.500   16.6930
    1.635   14.3233
    1.770   13.5510
    1.905   12.2345
    2.040   10.9531
    2.175   10.2510
    2.310    9.3558
    2.445    9.2505
    2.580    8.7239
    2.715    7.9691
    2.850    7.6707
    2.985    8.1622
    3.120    7.6356
    3.255    7.3196
    3.390    8.2149
    3.525    8.6537
    3.660   10.4616
    3.795   14.2531
    3.930   11.2691
    4.065    7.9164
    4.200    7.6532
    4.335    7.3899
    4.470    7.5127
    4.605    7.7585
    4.740    7.1266
    4.875    7.7585
    5.010    7.8111
    5.145    8.2500
    5.280    9.1452
    5.415   10.9531
    5.550    9.6893
    5.685    8.8117
    5.820    8.5133
    5.955    7.1266
    6.090    7.8989
    6.225    7.0388
    6.360    6.4946
    6.495    6.6351
    6.630    6.9510
    6.765    7.1792
    6.900    6.7228
    7.035    6.2665
    7.170    5.8803
    7.305    6.3016
    7.440    5.7750
    7.575    5.3888
    7.710    5.8627
    7.845    5.8803
    7.980    5.3010
    8.115    5.8276
    8.250    5.1080
    8.385    4.8973
    8.520    5.2308
    8.655    5.1080
    8.790    4.8973
    8.925    4.9149
    9.060    4.8798
    9.195    5.1957
    9.330    5.3712
    9.465    4.9675
    9.600    5.5292
    9.735    5.5117
    9.870    5.4064
   10.005    5.1606
   10.140    5.5994
   10.275    6.0558
   10.410    5.4239
   10.545    5.2133
   10.680    5.2308
   10.815    4.7393
   10.950    5.6345
   11.085    5.9329
   11.220    5.5292
   11.355    5.0202
   11.490    5.3186
   11.625    5.3537
   11.760    5.4415
   11.895    5.0202
   12.030    4.4936
   12.165    4.8271
   12.300    5.0026
   12.435    5.2484
   12.570    4.6340
   12.705    4.7042
   12.840    4.6165
   12.975    5.3537
   13.110    4.8271
   13.245    4.9324
   13.380    4.3707
   13.515    4.9675
   13.650    4.8798
   13.785    4.9500
   13.920    5.0026
   14.055    5.1431
   14.190    5.3010
   14.325    5.3010
   14.460    5.4415
   14.595    5.1606
   14.730    5.2133
   14.865    4.8798
   15.000    4.8973
   15.135    5.1431
   15.270    4.9149
   15.405    4.6691
   15.540    4.8622
   15.675    4.4058
   15.810    4.4760
   15.945    5.1957
   16.080    5.4415
   16.215    5.2484
   16.350    5.0904
   16.485    5.0553
   16.620    4.9500
   16.755    4.7920
   16.890    4.7218
   17.025    5.1255
   17.160    4.9324
   17.295    4.8622
   17.430    4.4585
   17.565    5.1080
   17.700    4.4936
   17.835    4.7218
   17.970    4.6340
   18.105    4.3005
   18.240    4.2478
   18.375    4.6340
   18.510    4.2654
   18.645    4.5111
   18.780    4.7393
   18.915    4.8271
   19.050    4.9149
   19.185    4.3356
   19.320    4.6867
   19.455    4.0723
   19.590    4.5287
   19.725    4.3707
   19.860    3.9143
   19.995    4.4936
   20.130    4.8095
   20.265    4.5111
   20.400    4.3181
   20.535    4.4585
   20.670    4.9149
   20.805    4.3356
   20.940    4.0548
   21.075    4.1601
   21.210    4.4058
   21.345    4.0899
   21.480    4.4234
   21.615    4.2478
   21.750    4.4058
   21.885    4.0548
   22.020    3.8968
   22.155    4.1074
   22.290    4.3532
   22.425    4.3532
   22.560    4.3356
   22.695    3.8617
   22.830    4.0548
   22.965    4.0197
   23.100    4.0372
   23.235    3.8968
   23.370    3.8266
   23.505    3.9494
   23.640    3.5633
   23.775    3.9670
   23.910    3.8968
   24.045    4.0021
   24.180    3.6335
   24.315    3.9494
   24.450    3.5106
   24.585    3.7564
   24.720    3.4404
   24.855    3.6686
   24.990    3.5106
   25.125    3.6335
   25.260    3.8441
   25.395    3.4404
   25.530    3.4053
   25.665    3.4404
   25.800    3.3175
   25.935    3.6335
   26.070    3.6686
   26.205    3.4404
   26.340    3.5457
   26.475    4.1250
   26.610    3.2649
   26.745    3.3877
   26.880    3.4404
   27.015    3.1420
   27.150    3.3351
   27.285    3.1596
   27.420    3.1771
   27.555    3.2649
   27.690    3.1245
   27.825    3.1947
   27.960    2.9665
   28.095    3.1947
   28.230    3.0191
   28.365    2.9138
   28.500    3.4053
   28.635    3.2649
   28.770    3.3877
   28.905    3.4755
   29.040    3.3351
   29.175    3.1947
   29.310    3.5282
   29.445    2.8436
   29.580    2.7207
   29.715    2.7909
   29.850    2.8612
   29.985    3.1420
   30.120    3.2298
   30.255    2.9665
   30.390    3.0893
   30.525    3.2298
   30.660    2.7558
   30.795    2.6681
   30.930    2.6856
   31.065    3.0016
   31.200    2.9665
   31.335    2.9138
   31.470    2.9840
   31.605    2.4925
   31.740    2.8085
   31.875    3.0367
   32.010    2.8612
   32.145    2.5101
   32.280    2.7207
   32.415    2.4925
   32.550    2.7909
   32.685    2.2643
   32.820    2.5101
   32.955    2.4574
   33.090    2.4750
   33.225    2.5452
   33.360    2.5101
   33.495    2.4925
   33.630    2.4223
   33.765    2.5628
   33.900    2.5101
   34.035    2.5276
   34.170    2.5276
   34.305    2.6330
   34.440    2.3346
   34.575    2.2643
   34.710    2.2468
   34.845    2.6154
   34.980    2.6330
   35.115    2.3697
   35.250    2.3170
   35.385    2.4399
   35.520    2.3521
   35.655    2.2117
   35.790    2.4048
   35.925    2.7734
   36.060    2.4574
   36.195    2.5276
   36.330    2.4925
   36.465    2.2995
   36.600    2.1590
   36.735    2.4925
   36.870    2.2643
   37.005    2.4223
   37.140    2.4399
   37.275    2.4223
   37.410    2.3346
   37.545    2.3872
   37.680    2.1415
   37.815    2.3170
   37.950    2.1239
   38.085    2.4048
   38.220    2.3697
   38.355    2.6505
   38.490    2.2643
   38.625    2.0537
   38.760    2.3346
   38.895    2.3521
   39.030    2.1590
   39.165    2.0888
   39.300    2.4574
   39.435    2.3872
   39.570    2.2995
   39.705    2.2117
   39.840    2.3346
   39.975    2.1415
   39.990    2.1766