File: data/PXRD/PXRD_KE-011_Cu-Ka1_capillary-1mm_5s-deg.xyd
    1.500   32.9437
    1.635   31.9115
    1.770   27.4671
    1.905   24.2865
    2.040   21.9273
    2.175   18.9995
    2.310   17.6830
    2.445   15.6925
    2.580   14.9026
    2.715   14.0811
    2.850   12.8805
    2.985   12.2380
    3.120   12.2486
    3.255   11.2691
    3.390   10.5635
    3.525   10.8583
    3.660    9.8894
    3.795    9.5419
    3.930    9.6577
    4.065    9.0785
    4.200    9.7630
    4.335    9.1943
    4.470    8.5624
    4.605    8.6151
    4.740    8.3623
    4.875    8.2780
    5.010    8.1201
    5.145    8.1517
    5.280    8.0990
    5.415    7.9410
    5.550    8.0253
    5.685    8.1306
    5.820    7.9726
    5.955    8.0463
    6.090    8.2043
    6.225    7.8357
    6.360    8.0779
    6.495    8.1306
    6.630    7.8252
    6.765    8.0463
    6.900    8.0779
    7.035    8.2149
    7.170    7.7514
    7.305    8.3728
    7.440    8.1938
    7.575    8.0253
    7.710    8.1622
    7.845    8.0463
    7.980    7.9726
    8.115    7.9937
    8.250    8.2780
    8.385    8.4044
    8.520    8.5940
    8.655    8.5519
    8.790    8.1938
    8.925    8.5097
    9.060    8.6993
    9.195    8.3728
    9.330    8.6572
    9.465    8.2043
    9.600    8.6256
    9.735    8.5940
    9.870    8.1938
   10.005    8.2149
   10.140    8.3518
   10.275    8.3096
   10.410    7.9831
   10.545    8.4255
   10.680    8.3939
   10.815    8.1306
   10.950    8.1727
   11.085    8.2359
   11.220    7.4987
   11.355    7.6040
   11.490    7.6461
   11.625    7.8884
   11.760    7.5724
   11.895    7.4355
   12.030    7.7093
   12.165    7.4144
   12.300    7.2249
   12.435    7.4250
   12.570    7.4671
   12.705    7.0879
   12.840    7.2670
   12.975    7.3512
   13.110    7.1406
   13.245    7.1406
   13.380    7.4671
   13.515    7.3091
   13.650    7.1511
   13.785    7.6777
   13.920    6.9826
   14.055    6.7404
   14.190    7.3302
   14.325    7.2986
   14.460    7.1301
   14.595    7.3618
   14.730    7.2986
   14.865    7.0774
   15.000    7.0248
   15.135    7.1933
   15.270    6.9510
   15.405    6.6877
   15.540    7.1617
   15.675    7.0353
   15.810    6.8562
   15.945    7.3828
   16.080    7.0142
   16.215    7.3302
   16.350    7.4039
   16.485    7.0669
   16.620    7.1090
   16.755    7.0774
   16.890    7.3512
   17.025    6.7825
   17.160    7.2038
   17.295    7.3934
   17.430    7.5092
   17.565    7.4144
   17.700    7.5303
   17.835    7.3407
   17.970    7.5197
   18.105    7.6988
   18.240    7.3091
   18.375    7.5303
   18.510    7.5197
   18.645    7.7304
   18.780    7.8146
   18.915    7.8568
   19.050    7.6777
   19.185    7.5619
   19.320    7.3302
   19.455    7.2459
   19.590    7.5513
   19.725    7.4144
   19.860    7.6040
   19.995    7.4355
   20.130    7.4882
   20.265    7.8146
   20.400    7.5408
   20.535    7.4460
   20.670    7.5513
   20.805    7.8252
   20.940    7.6461
   21.075    7.4776
   21.210    7.3302
   21.345    7.7409
   21.480    7.6040
   21.615    7.7199
   21.750    7.2249
   21.885    7.8357
   22.020    7.4882
   22.155    7.3618
   22.290    7.5513
   22.425    6.9826
   22.560    7.5619
   22.695    7.7725
   22.830    8.0674
   22.965    7.3723
   23.100    8.0147
   23.235    7.6567
   23.370    7.9200
   23.505    7.8252
   23.640    7.4355
   23.775    7.4039
   23.910    7.5935
   24.045    7.2986
   24.180    7.9831
   24.315    7.6145
   24.450    7.5092
   24.585    6.9194
   24.720    7.2986
   24.855    7.6251
   24.990    7.3618
   25.125    6.9932
   25.260    7.0774
   25.395    7.2880
   25.530    7.8041
   25.665    7.4671
   25.800    7.1722
   25.935    7.2038
   26.070    7.2249
   26.205    7.3196
   26.340    7.0563
   26.475    7.0774
   26.610    7.2459
   26.745    6.7930
   26.880    7.1195
   27.015    6.8352
   27.150    7.1090
   27.285    6.6351
   27.420    7.0458
   27.555    6.5508
   27.690    6.3296
   27.825    6.6351
   27.960    6.4034
   28.095    6.7193
   28.230    6.6140
   28.365    6.6140
   28.500    6.5824
   28.635    6.7509
   28.770    6.8878
   28.905    6.5192
   29.040    6.0137
   29.175    6.2138
   29.310    6.3718
   29.445    6.4139
   29.580    6.3928
   29.715    6.5192
   29.850    5.9400
   29.985    6.0242
   30.120    6.9089
   30.255    6.2243
   30.390    6.2665
   30.525    6.4560
   30.660    6.0137
   30.795    6.2454
   30.930    6.2349
   31.065    6.0664
   31.200    5.9926
   31.335    6.0979
   31.470    6.0558
   31.605    5.7399
   31.740    6.0769
   31.875    5.7083
   32.010    5.9821
   32.145    6.0769
   32.280    5.8136
   32.415    5.7504
   32.550    6.2138
   32.685    5.8031
   32.820    5.5714
   32.955    5.6240
   33.090    5.9821
   33.225    5.6872
   33.360    5.6556
   33.495    5.8241
   33.630    5.6345
   33.765    5.2659
   33.900    5.8452
   34.035    5.3818
   34.170    5.6872
   34.305    5.4766
   34.440    5.5082
   34.575    5.3502
   34.710    5.2870
   34.845    5.6767
   34.980    5.5924
   35.115    5.4134
   35.250    5.4344
   35.385    5.7715
   35.520    5.2133
   35.655    5.3186
   35.790    5.5292
   35.925    5.4660
   36.060    5.2554
   36.195    4.9921
   36.330    5.5819
   36.465    5.1501
   36.600    5.3397
   36.735    5.3818
   36.870    5.3607
   37.005    5.0764
   37.140    5.1817
   37.275    5.2133
   37.410    5.1922
   37.545    5.1395
   37.680    4.9605
   37.815    4.8763
   37.950    5.0342
   38.085    5.3081
   38.220    4.8868
   38.355    5.0342
   38.490    5.0448
   38.625    4.7288
   38.760    5.0448
   38.895    5.0237
   39.030    5.0448
   39.165    5.3186
   39.300    4.8973
   39.435    4.9710
   39.570    4.9394
   39.705    5.1080
   39.840    5.1817
   39.975    5.1606
   39.990    5.0448