File: data/PXRD/PXRD_KE-155_Cu-Ka1_capillary-1mm_5s-deg.xyd
    1.500   42.6856
    1.635   39.7156
    1.770   34.7341
    1.905   33.4281
    2.040   31.8483
    2.175   32.3855
    2.310   32.9542
    2.445   32.8067
    2.580   37.6198
    2.715   41.4429
    2.850   48.9416
    2.985   61.4113
    3.120   79.0627
    3.255  109.7420
    3.390  179.5787
    3.525  150.9110
    3.660   64.4339
    3.795   68.7625
    3.930   85.6767
    4.065   89.6998
    4.200   65.6872
    4.335   37.3249
    4.470   20.8952
    4.605   15.2396
    4.740   13.0595
    4.875   11.4587
    5.010   10.6793
    5.145   10.6477
    5.280   10.3212
    5.415    9.7104
    5.550    9.7104
    5.685    9.3312
    5.820    8.9731
    5.955    8.9205
    6.090    8.6361
    6.225    9.6156
    6.360    9.6893
    6.495   10.6582
    6.630   12.2064
    6.765   16.0295
    6.900   24.0232
    7.035   20.2949
    7.170   11.3955
    7.305   10.1527
    7.440   10.5845
    7.575   10.8794
    7.710   11.5324
    7.845   11.6588
    7.980   13.9126
    8.115   14.7867
    8.250   14.3444
    8.385   13.7441
    8.520   12.4487
    8.655   11.1848
    8.790   10.2264
    8.925    9.0679
    9.060    8.6572
    9.195    8.5203
    9.330    8.1095
    9.465    8.1938
    9.600    7.9726
    9.735    7.9516
    9.870    8.3307
   10.005    8.0358
   10.140    8.4571
   10.275    8.1833
   10.410    8.8784
   10.545    8.7098
   10.680    8.1622
   10.815    7.8041
   10.950    8.0674
   11.085    8.1306
   11.220    8.0253
   11.355    7.9621
   11.490    7.9305
   11.625    8.4992
   11.760    8.2570
   11.895    8.6888
   12.030    8.8152
   12.165    8.8257
   12.300    9.1943
   12.435    8.4992
   12.570    8.2043
   12.705    8.3202
   12.840    8.6783
   12.975    8.2149
   13.110    8.2780
   13.245    8.0990
   13.380    8.4466
   13.515    8.4255
   13.650    8.4150
   13.785    8.0990
   13.920    7.9516
   14.055    8.2675
   14.190    8.4044
   14.325    7.7199
   14.460    7.9094
   14.595    7.9094
   14.730    8.0885
   14.865    7.4987
   15.000    7.7304
   15.135    7.6461
   15.270    7.8673
   15.405    7.7409
   15.540    8.0569
   15.675    7.7620
   15.810    7.6145
   15.945    7.4566
   16.080    7.7830
   16.215    7.7409
   16.350    7.7830
   16.485    7.9937
   16.620    7.7093
   16.755    7.7725
   16.890    7.4671
   17.025    8.0463
   17.160    7.7409
   17.295    7.6251
   17.430    7.7514
   17.565    8.0042
   17.700    7.8568
   17.835    7.7409
   17.970    8.0569
   18.105    7.9937
   18.240    7.5303
   18.375    8.4781
   18.510    7.2354
   18.645    7.8884
   18.780    8.0358
   18.915    7.5829
   19.050    8.1727
   19.185    7.9726
   19.320    7.9200
   19.455    8.2254
   19.590    8.4044
   19.725    8.7625
   19.860    9.2575
   19.995    9.0258
   20.130    8.5413
   20.265    8.6256
   20.400    9.0258
   20.535    9.1311
   20.670    8.5097
   20.805    8.7414
   20.940    9.0785
   21.075    8.9837
   21.210    8.6256
   21.345    8.6888
   21.480    8.6993
   21.615    8.7098
   21.750    9.0153
   21.885    8.8046
   22.020    8.6993
   22.155    8.8678
   22.290    8.5519
   22.425    8.5203
   22.560    9.0785
   22.695    8.8994
   22.830    8.5835
   22.965    8.7414
   23.100    8.1833
   23.235    8.5835
   23.370    8.1622
   23.505    8.4887
   23.640    8.0569
   23.775    7.9831
   23.910    8.1622
   24.045    7.8778
   24.180    8.2886
   24.315    8.2254
   24.450    8.4887
   24.585    8.0674
   24.720    7.9305
   24.855    8.2464
   24.990    8.3939
   25.125    7.8462
   25.260    7.8884
   25.395    7.6145
   25.530    7.7093
   25.665    7.6777
   25.800    7.5303
   25.935    7.6567
   26.070    8.1833
   26.205    7.5092
   26.340    7.5303
   26.475    7.4250
   26.610    7.7409
   26.745    7.4355
   26.880    7.1722
   27.015    7.2143
   27.150    7.6040
   27.285    7.4144
   27.420    7.4566
   27.555    7.6461
   27.690    7.2459
   27.825    7.1195
   27.960    7.1195
   28.095    7.5935
   28.230    7.7620
   28.365    7.2775
   28.500    7.3091
   28.635    7.4776
   28.770    6.9826
   28.905    6.9510
   29.040    7.0353
   29.175    7.4460
   29.310    7.1301
   29.445    7.1933
   29.580    7.1722
   29.715    6.8352
   29.850    6.9826
   29.985    6.7825
   30.120    6.9826
   30.255    7.0774
   30.390    7.0669
   30.525    7.0774
   30.660    7.0879
   30.795    7.0563
   30.930    6.7088
   31.065    6.8878
   31.200    6.8036
   31.335    6.7299
   31.470    7.1722
   31.605    6.7509
   31.740    7.2670
   31.875    6.9932
   32.010    7.1933
   32.145    7.0669
   32.280    6.9089
   32.415    6.4771
   32.550    6.8668
   32.685    6.8246
   32.820    6.9510
   32.955    7.0563
   33.090    7.0563
   33.225    6.7088
   33.360    6.2033
   33.495    6.4244
   33.630    6.4034
   33.765    6.4666
   33.900    5.8031
   34.035    6.3191
   34.170    6.6456
   34.305    6.4244
   34.440    6.2033
   34.575    6.4244
   34.710    6.4876
   34.845    6.1822
   34.980    5.9926
   35.115    6.3402
   35.250    6.2875
   35.385    6.5719
   35.520    6.6667
   35.655    6.5403
   35.790    6.3612
   35.925    6.0242
   36.060    5.9294
   36.195    5.9084
   36.330    5.6556
   36.465    6.1927
   36.600    6.0348
   36.735    5.9610
   36.870    6.2138
   37.005    6.2454
   37.140    5.9505
   37.275    6.1611
   37.410    6.1717
   37.545    5.9610
   37.680    6.4982
   37.815    6.0348
   37.950    6.4666
   38.085    5.7293
   38.220    5.8662
   38.355    6.2243
   38.490    6.1190
   38.625    6.1295
   38.760    6.0453
   38.895    6.3507
   39.030    5.9505
   39.165    6.1822
   39.300    5.8662
   39.435    6.1506
   39.570    6.1506
   39.705    6.0137
   39.840    5.8347
   39.975    6.0874
   39.990    6.1717