File: data/PXRD/PXRD_KE-322A_Cu-Ka1_film-3mm_3s-deg.xyd
    1.500    6.4946
    1.665    5.8627
    1.830    5.3186
    1.995    5.3712
    2.160    5.3010
    2.325    5.2133
    2.490    4.6165
    2.655    5.5994
    2.820    4.9500
    2.985    4.7393
    3.150    5.0553
    3.315    4.9851
    3.480    5.1255
    3.645    5.4064
    3.810    5.7223
    3.975    5.8101
    4.140    5.3361
    4.305    5.4064
    4.470    4.7569
    4.635    5.9329
    4.800    5.6345
    4.965    5.7574
    5.130    6.1787
    5.295    6.4946
    5.460    5.8452
    5.625    5.5819
    5.790    5.3537
    5.955    5.5819
    6.120    4.9675
    6.285    5.1606
    6.450    5.1606
    6.615    5.0728
    6.780    4.8798
    6.945    4.6867
    7.110    4.7569
    7.275    5.0377
    7.440    4.9149
    7.605    4.5287
    7.770    4.5814
    7.935    4.8973
    8.100    4.4234
    8.265    4.6867
    8.430    4.9324
    8.595    4.4234
    8.760    4.9324
    8.925    4.3532
    9.090    4.8271
    9.255    4.8095
    9.420    5.0202
    9.585    4.6867
    9.750    4.7744
    9.915    4.6340
   10.080    4.3532
   10.245    4.5814
   10.410    4.3356
   10.575    4.4936
   10.740    4.5638
   10.905    4.6867
   11.070    4.0021
   11.235    4.3532
   11.400    4.4760
   11.565    4.5463
   11.730    4.1601
   11.895    4.2830
   12.060    4.3883
   12.225    4.4936
   12.390    4.1425
   12.555    4.2303
   12.720    3.9670
   12.885    4.2303
   13.050    4.0197
   13.215    3.9494
   13.380    4.3883
   13.545    4.0372
   13.710    3.7564
   13.875    4.1952
   14.040    4.5638
   14.205    4.3883
   14.370    4.2478
   14.535    4.3181
   14.700    4.2478
   14.865    4.2830
   15.030    4.3356
   15.195    4.5287
   15.360    3.9846
   15.525    4.0197
   15.690    4.0548
   15.855    3.9670
   16.020    3.9319
   16.185    4.0021
   16.350    4.2654
   16.515    4.4936
   16.680    4.1250
   16.845    3.9494
   17.010    4.4058
   17.175    3.8792
   17.340    4.2478
   17.505    4.1250
   17.670    3.7739
   17.835    3.9494
   18.000    3.8792
   18.165    3.5282
   18.330    4.2303
   18.495    3.7388
   18.660    4.1952
   18.825    4.1250
   18.990    4.5989
   19.155    4.0899
   19.320    4.0899
   19.485    3.9846
   19.650    4.1074
   19.815    4.0899
   19.980    3.6686
   20.145    3.8090
   20.310    3.7739
   20.475    4.1776
   20.640    4.2478
   20.805    4.0197
   20.970    4.4585
   21.135    4.0197
   21.300    4.2303
   21.465    4.1601
   21.630    4.2303
   21.795    3.8792
   21.960    3.7388
   22.125    3.8441
   22.290    3.5984
   22.455    3.6510
   22.620    3.6159
   22.785    3.6335
   22.950    3.8968
   23.115    3.5984
   23.280    3.6862
   23.445    3.5808
   23.610    3.7915
   23.775    3.6335
   23.940    3.7739
   24.105    3.5457
   24.270    3.8792
   24.435    3.6510
   24.600    4.0021
   24.765    3.3000
   24.930    3.4931
   25.095    3.9670
   25.260    3.5633
   25.425    3.5282
   25.590    3.4053
   25.755    3.8266
   25.920    3.5984
   26.085    3.7388
   26.250    3.2824
   26.415    3.5808
   26.580    3.6862
   26.745    3.4229
   26.910    3.2649
   27.075    3.3702
   27.240    3.2298
   27.405    3.6335
   27.570    3.8441
   27.735    3.4404
   27.900    3.1596
   28.065    3.1069
   28.230    3.3877
   28.395    3.4580
   28.560    3.2473
   28.725    3.8792
   28.890    3.0542
   29.055    3.3877
   29.220    3.1069
   29.385    3.2824
   29.550    2.8436
   29.715    2.9665
   29.880    3.2473
   30.045    2.8787
   30.210    3.0191
   30.375    2.9489
   30.540    2.9138
   30.705    2.9314
   30.870    3.2473
   31.035    3.0016
   31.200    3.0718
   31.365    2.7558
   31.530    2.6856
   31.695    3.3175
   31.860    3.1069
   32.025    3.0191
   32.190    3.1069
   32.355    2.8436
   32.520    2.6154
   32.685    2.7383
   32.850    3.0367
   33.015    2.9489
   33.180    2.9489
   33.345    2.9840
   33.510    2.5628
   33.675    2.8260
   33.840    2.7032
   34.005    2.9138
   34.170    2.9138
   34.335    2.8787
   34.500    2.6330
   34.665    2.5803
   34.830    2.7383
   34.995    2.8260
   35.160    2.6856
   35.325    2.4399
   35.490    2.6154
   35.655    2.6856
   35.820    2.6856
   35.985    3.0718
   36.150    2.4750
   36.315    2.9665
   36.480    2.7558
   36.645    2.9489
   36.810    2.5101
   36.975    2.8436
   37.140    2.7383
   37.305    2.7734
   37.470    2.8260
   37.635    2.5276
   37.800    2.5979
   37.965    2.7207
   38.130    2.7909
   38.295    3.0016
   38.460    2.7207
   38.625    2.8436
   38.790    2.6154
   38.955    2.7207
   39.120    2.5628
   39.285    2.6505
   39.450    2.8260
   39.615    2.4925
   39.780    2.4223
   39.945    2.7558
   40.110    2.6330
   40.275    2.6154
   40.440    2.6681
   40.605    2.5979
   40.770    2.5979
   40.935    2.7734
   41.100    2.5452
   41.265    2.7558
   41.430    2.6856
   41.595    2.7558
   41.760    2.5628
   41.925    2.9665
   42.090    2.6505
   42.255    2.6681
   42.420    3.0542
   42.585    2.7207
   42.750    2.7558
   42.915    3.0191
   43.080    2.6856
   43.245    2.5101
   43.410    2.7734
   43.575    2.6330
   43.740    3.0367
   43.905    2.7207
   44.070    2.4399
   44.235    2.6505
   44.400    2.5276
   44.565    2.8612
   44.730    2.5628
   44.895    2.6681
   45.060    2.7734
   45.225    2.5276
   45.390    2.4048
   45.555    2.5101
   45.720    2.4750
   45.885    2.2292
   46.050    2.4048
   46.215    2.7032
   46.380    2.4399
   46.545    2.7558
   46.710    2.7558
   46.875    2.4223
   47.040    2.6154
   47.205    2.6330
   47.370    2.4925
   47.535    2.3521
   47.700    2.2995
   47.865    2.4925
   48.030    2.2819
   48.195    2.5628
   48.360    2.4925
   48.525    2.5452
   48.690    2.3170
   48.855    2.6154
   49.020    2.2643
   49.185    2.7032
   49.350    2.4048
   49.515    2.6330
   49.680    2.5979
   49.845    2.2819
   49.980    2.6681