File: data/PXRD/PXRD_KE-194_Cu-Ka1_capillary-1mm_5s-deg.xyd
    1.500   28.6783
    1.635   24.1601
    1.770   20.2212
    1.905   17.2512
    2.040   14.8710
    2.175   12.4908
    2.310   11.3849
    2.445   10.3633
    2.580    9.5208
    2.715    8.4466
    2.850    8.0358
    2.985    7.5724
    3.120    6.9826
    3.255    6.6772
    3.390    5.8768
    3.525    6.3928
    3.660    5.9716
    3.795    5.5819
    3.930    5.5714
    4.065    5.3607
    4.200    4.8447
    4.335    5.2343
    4.470    5.0342
    4.605    4.8025
    4.740    4.4971
    4.875    4.5603
    5.010    4.0758
    5.145    4.2759
    5.280    3.8441
    5.415    4.0548
    5.550    4.0969
    5.685    3.6756
    5.820    3.9916
    5.955    3.9600
    6.090    3.9600
    6.225    3.8968
    6.360    4.0758
    6.495    4.0864
    6.630    4.0864
    6.765    3.7493
    6.900    3.9073
    7.035    3.6651
    7.170    4.1601
    7.305    4.0758
    7.440    3.8652
    7.575    4.0758
    7.710    4.1917
    7.845    4.2865
    7.980    3.6546
    8.115    4.1601
    8.250    3.8336
    8.385    3.7915
    8.520    4.0548
    8.655    3.7072
    8.790    3.7177
    8.925    3.7283
    9.060    3.9705
    9.195    3.5808
    9.330    3.9284
    9.465    4.0442
    9.600    3.7388
    9.735    3.7915
    9.870    3.4229
   10.005    3.8757
   10.140    3.8336
   10.275    3.8231
   10.410    3.7915
   10.545    3.8336
   10.680    3.5808
   10.815    3.4650
   10.950    3.3175
   11.085    3.7388
   11.220    3.7704
   11.355    3.3702
   11.490    3.3386
   11.625    3.2965
   11.760    3.7072
   11.895    3.4755
   12.030    3.3913
   12.165    3.5703
   12.300    3.7072
   12.435    3.4650
   12.570    3.5808
   12.705    3.4439
   12.840    3.5492
   12.975    3.4966
   13.110    3.4123
   13.245    3.3281
   13.380    3.3913
   13.515    3.3175
   13.650    3.4860
   13.785    3.4650
   13.920    3.4123
   14.055    3.3386
   14.190    3.3175
   14.325    3.1385
   14.460    3.5598
   14.595    3.2438
   14.730    3.4650
   14.865    3.2649
   15.000    3.4018
   15.135    3.2754
   15.270    3.1701
   15.405    3.1596
   15.540    3.5808
   15.675    3.4018
   15.810    3.7072
   15.945    3.3597
   16.080    3.3281
   16.215    3.3597
   16.350    3.5176
   16.485    3.4966
   16.620    3.4334
   16.755    3.5282
   16.890    3.5176
   17.025    3.2965
   17.160    3.3070
   17.295    3.4018
   17.430    3.3281
   17.565    3.0858
   17.700    3.5598
   17.835    3.1912
   17.970    3.3281
   18.105    3.5703
   18.240    3.1701
   18.375    3.4123
   18.510    3.3386
   18.645    3.1806
   18.780    3.5176
   18.915    3.6124
   19.050    3.5176
   19.185    3.6335
   19.320    3.3175
   19.455    3.6230
   19.590    3.6440
   19.725    3.4018
   19.860    3.3807
   19.995    3.3807
   20.130    3.4018
   20.265    3.4018
   20.400    3.3386
   20.535    3.2754
   20.670    3.6756
   20.805    3.3597
   20.940    3.1596
   21.075    3.5282
   21.210    3.5492
   21.345    3.5492
   21.480    3.4123
   21.615    3.2438
   21.750    3.5071
   21.885    3.2965
   22.020    3.4439
   22.155    3.6124
   22.290    3.2543
   22.425    3.4123
   22.560    3.5598
   22.695    3.5282
   22.830    3.3281
   22.965    3.4439
   23.100    3.3807
   23.235    3.2438
   23.370    3.1701
   23.505    3.2859
   23.640    3.3175
   23.775    2.9910
   23.910    3.2859
   24.045    3.2649
   24.180    3.4334
   24.315    3.1701
   24.450    3.1280
   24.585    3.4123
   24.720    3.2649
   24.855    3.1385
   24.990    3.1806
   25.125    3.0964
   25.260    3.0858
   25.395    3.2965
   25.530    3.1490
   25.665    3.0753
   25.800    3.0437
   25.935    3.0121
   26.070    3.0437
   26.205    3.0753
   26.340    2.8436
   26.475    2.9384
   26.610    3.0858
   26.745    2.9173
   26.880    3.0121
   27.015    3.1385
   27.150    2.9489
   27.285    2.8331
   27.420    3.0226
   27.555    2.6014
   27.690    2.9595
   27.825    2.9173
   27.960    3.0542
   28.095    2.9384
   28.230    2.9700
   28.365    2.9068
   28.500    2.8857
   28.635    2.8015
   28.770    2.9173
   28.905    2.9595
   29.040    2.8120
   29.175    2.7699
   29.310    2.7699
   29.445    2.8647
   29.580    2.6435
   29.715    2.8963
   29.850    2.7383
   29.985    2.7488
   30.120    2.8436
   30.255    2.8120
   30.390    2.5487
   30.525    2.8541
   30.660    2.3275
   30.795    2.3907
   30.930    2.5698
   31.065    2.6751
   31.200    2.6330
   31.335    2.4750
   31.470    2.4434
   31.605    2.5382
   31.740    2.4855
   31.875    2.4539
   32.010    2.5171
   32.145    2.5592
   32.280    2.3275
   32.415    2.6014
   32.550    2.4118
   32.685    2.5487
   32.820    2.5066
   32.955    2.4223
   33.090    2.4855
   33.225    2.3802
   33.360    2.3802
   33.495    2.4855
   33.630    2.3486
   33.765    2.2117
   33.900    2.4013
   34.035    2.1485
   34.170    2.2222
   34.305    2.6119
   34.440    2.4645
   34.575    2.3065
   34.710    2.4223
   34.845    2.4329
   34.980    2.3907
   35.115    2.2749
   35.250    2.4223
   35.385    2.3591
   35.520    2.4223
   35.655    1.9695
   35.790    2.0958
   35.925    2.3486
   36.060    2.0853
   36.195    2.0642
   36.330    2.1696
   36.465    2.3065
   36.600    2.1801
   36.735    2.1590
   36.870    2.1801
   37.005    2.2643
   37.140    2.2433
   37.275    2.3802
   37.410    2.1696
   37.545    2.3802
   37.680    2.1590
   37.815    1.9905
   37.950    2.1590
   38.085    2.2959
   38.220    2.1590
   38.355    2.1696
   38.490    2.1906
   38.625    2.2643
   38.760    2.1169
   38.895    2.0958
   39.030    1.9695
   39.165    2.0748
   39.300    2.0748
   39.435    2.0537
   39.570    2.0116
   39.705    2.0116
   39.840    2.1380
   39.975    1.9905
   39.990    1.9800