File: data/PXRD/PXRD_KE-217_Co-Ka1_film-3mm_5s-deg.xyd
    1.500    4.8154
    1.635    4.2590
    1.770    3.7025
    1.905    3.3387
    2.040    2.9428
    2.175    2.7287
    2.310    2.6217
    2.445    2.5682
    2.580    2.4398
    2.715    2.2579
    2.850    2.2258
    2.985    2.0974
    3.120    2.0225
    3.255    2.1616
    3.390    2.5468
    3.525    2.9963
    3.660    3.5955
    3.795    5.7785
    3.930   11.3216
    4.065   13.3761
    4.200    5.0508
    4.335    4.3446
    4.470    5.0722
    4.605    6.2279
    4.740    6.0995
    4.875    4.9010
    5.010    3.4457
    5.145    2.6324
    5.280    2.2686
    5.415    2.1937
    5.550    1.8513
    5.685    1.8941
    5.820    1.9904
    5.955    1.7978
    6.090    2.1830
    6.225    2.0546
    6.360    2.4184
    6.495    2.0760
    6.630    2.1723
    6.765    1.8620
    6.900    1.8406
    7.035    1.6479
    7.170    1.4553
    7.305    1.5195
    7.440    1.4232
    7.575    1.3697
    7.710    1.3483
    7.845    1.4874
    7.980    1.8834
    8.115    2.5361
    8.250    1.6372
    8.385    1.3269
    8.520    1.1450
    8.655    1.3269
    8.790    1.1985
    8.925    1.0701
    9.060    1.3804
    9.195    1.4339
    9.330    1.2627
    9.465    1.0808
    9.600    1.2092
    9.735    1.2306
    9.870    1.1129
   10.005    1.2199
   10.140    1.0273
   10.275    1.1664
   10.410    0.8775
   10.545    1.1022
   10.680    0.8989
   10.815    0.7812
   10.950    0.8240
   11.085    0.8240
   11.220    0.8240
   11.355    0.8775
   11.490    0.8133
   11.625    0.9845
   11.760    0.8561
   11.895    0.7919
   12.030    0.9738
   12.165    1.0380
   12.300    0.8561
   12.435    0.8668
   12.570    0.9845
   12.705    1.0059
   12.840    0.8133
   12.975    0.9096
   13.110    1.0701
   13.245    0.7812
   13.380    0.9738
   13.515    1.0273
   13.650    1.0059
   13.785    0.8133
   13.920    0.8561
   14.055    0.8882
   14.190    0.8882
   14.325    0.8561
   14.460    0.9845
   14.595    1.0380
   14.730    1.0594
   14.865    0.9310
   15.000    0.9631
   15.135    0.7705
   15.270    0.8882
   15.405    0.7598
   15.540    0.8668
   15.675    0.8240
   15.810    1.0273
   15.945    0.8775
   16.080    0.9310
   16.215    1.0380
   16.350    0.8561
   16.485    0.9417
   16.620    1.1771
   16.755    1.0059
   16.890    1.0166
   17.025    0.8775
   17.160    0.9952
   17.295    0.8882
   17.430    0.8026
   17.565    0.8347
   17.700    0.9738
   17.835    0.7598
   17.970    0.8240
   18.105    0.7919
   18.240    0.8347
   18.375    0.9203
   18.510    0.8775
   18.645    0.8668
   18.780    1.0380
   18.915    0.9203
   19.050    0.8561
   19.185    0.8668
   19.320    0.9417
   19.455    0.8561
   19.590    0.8989
   19.725    0.8882
   19.860    0.7705
   19.995    0.8561
   20.130    0.7919
   20.265    0.8775
   20.400    0.7277
   20.535    0.8561
   20.670    0.7812
   20.805    1.0059
   20.940    0.6849
   21.075    0.8454
   21.210    0.8989
   21.345    0.8561
   21.480    0.8133
   21.615    0.7705
   21.750    0.7919
   21.885    0.6635
   22.020    0.7277
   22.155    0.8668
   22.290    0.8240
   22.425    0.9524
   22.560    0.8347
   22.695    0.7598
   22.830    0.7384
   22.965    0.7277
   23.100    1.0273
   23.235    0.8561
   23.370    0.8775
   23.505    0.7705
   23.640    0.9738
   23.775    0.7705
   23.910    0.7919
   24.045    0.6421
   24.180    0.7384
   24.315    0.6849
   24.450    0.7705
   24.585    0.7063
   24.720    0.7919
   24.855    0.7491
   24.990    0.7384
   25.125    0.7063
   25.260    0.7705
   25.395    0.7384
   25.530    0.7277
   25.665    0.8668
   25.800    0.8454
   25.935    0.7170
   26.070    0.6635
   26.205    0.6207
   26.340    0.6207
   26.475    0.7491
   26.610    0.6528
   26.745    0.7812
   26.880    0.6421
   27.015    0.4601
   27.150    0.6742
   27.285    0.7063
   27.420    0.5564
   27.555    0.6100
   27.690    0.5671
   27.825    0.6956
   27.960    0.6100
   28.095    0.6314
   28.230    0.6421
   28.365    0.6528
   28.500    0.6100
   28.635    0.6207
   28.770    0.6207
   28.905    0.4601
   29.040    0.5993
   29.175    0.5778
   29.310    0.5350
   29.445    0.5564
   29.580    0.5457
   29.715    0.7384
   29.850    0.4922
   29.985    0.5564
   30.120    0.5350
   30.255    0.5457
   30.390    0.4708
   30.525    0.6314
   30.660    0.4708
   30.795    0.4815
   30.930    0.4708
   31.065    0.5243
   31.200    0.5136
   31.335    0.5993
   31.470    0.5029
   31.605    0.6207
   31.740    0.4708
   31.875    0.4601
   32.010    0.4173
   32.145    0.5029
   32.280    0.5564
   32.415    0.3959
   32.550    0.4601
   32.685    0.7063
   32.820    0.3531
   32.955    0.4280
   33.090    0.4922
   33.225    0.5243
   33.360    0.3531
   33.495    0.4815
   33.630    0.5350
   33.765    0.4708
   33.900    0.3852
   34.035    0.4601
   34.170    0.3745
   34.305    0.3852
   34.440    0.4173
   34.575    0.4815
   34.710    0.4173
   34.845    0.3424
   34.980    0.4173
   35.115    0.3424
   35.250    0.3424
   35.385    0.3638
   35.520    0.4173
   35.655    0.3852
   35.790    0.3745
   35.925    0.2996
   36.060    0.4066
   36.195    0.3210
   36.330    0.3745
   36.465    0.3638
   36.600    0.2889
   36.735    0.3424
   36.870    0.3317
   37.005    0.3210
   37.140    0.3210
   37.275    0.3745
   37.410    0.3424
   37.545    0.4815
   37.680    0.3745
   37.815    0.3210
   37.950    0.3531
   38.085    0.3424
   38.220    0.2461
   38.355    0.3638
   38.490    0.3424
   38.625    0.3745
   38.760    0.3424
   38.895    0.2889
   39.030    0.3638
   39.165    0.3210
   39.300    0.3317
   39.435    0.3210
   39.570    0.2996
   39.705    0.2354
   39.840    0.2996
   39.975    0.2033
   39.990    0.3317