File: data/PXRD/PXRD_KE-016_Cu-Ka1_capillary-1mm_5s-deg.xyd
    1.500   33.0490
    1.635   30.1001
    1.770   26.4034
    1.905   23.4650
    2.040   20.8215
    2.175   19.7051
    2.310   18.2833
    2.445   17.1564
    2.580   16.0084
    2.715   15.3870
    2.850   14.1864
    2.985   14.4392
    3.120   12.8278
    3.255   13.4702
    3.390   12.3433
    3.525   12.4908
    3.660   12.0169
    3.795   11.3955
    3.930   11.3217
    4.065   10.7846
    4.200   11.2270
    4.335   10.5951
    4.470   10.6898
    4.605   10.5635
    4.740   10.5003
    4.875   10.2264
    5.010   10.4160
    5.145   10.0158
    5.280   10.5529
    5.415   11.0795
    5.550   11.6798
    5.685   11.6482
    5.820   12.9437
    5.955   17.4934
    6.090    9.4892
    6.225    9.5103
    6.360    9.0785
    6.495    9.2364
    6.630    9.0047
    6.765    9.1417
    6.900    9.2680
    7.035    9.5945
    7.170    9.5840
    7.305    9.3102
    7.440    8.9100
    7.575    9.5945
    7.710    9.3207
    7.845    9.1417
    7.980    9.5735
    8.115    8.7836
    8.250    9.3207
    8.385    9.9526
    8.520    9.6261
    8.655    9.5524
    8.790    9.6577
    8.925    9.4997
    9.060    9.5524
    9.195   10.4055
    9.330   11.7746
    9.465   16.0084
    9.600   11.1216
    9.735   10.3844
    9.870    9.3628
   10.005    9.4787
   10.140    9.4681
   10.275    9.2996
   10.410   10.7320
   10.545   10.7846
   10.680   15.1237
   10.815   13.1227
   10.950   12.0695
   11.085   11.6377
   11.220    9.9947
   11.355   10.0790
   11.490    9.7209
   11.625   11.0795
   11.760   11.2164
   11.895   10.5635
   12.030    9.2470
   12.165    9.1417
   12.300    9.1311
   12.435    9.0153
   12.570    9.0363
   12.705    9.1311
   12.840    9.5840
   12.975    9.5313
   13.110   10.5213
   13.245    8.7625
   13.380    8.3728
   13.515    8.6151
   13.650    8.5729
   13.785    8.9415
   13.920    8.9942
   14.055    8.7309
   14.190    8.8994
   14.325    9.0574
   14.460    8.5203
   14.595    9.2364
   14.730    9.0258
   14.865    9.1206
   15.000    8.8889
   15.135    8.9100
   15.270    8.6783
   15.405    8.4150
   15.540    8.8362
   15.675    9.0469
   15.810    9.0047
   15.945   11.2164
   16.080    9.0153
   16.215    8.2254
   16.350    8.7941
   16.485    8.2991
   16.620    8.8046
   16.755    9.0574
   16.890    9.9631
   17.025    9.1732
   17.160    8.4781
   17.295    8.7520
   17.430    8.7520
   17.565    8.9837
   17.700    8.9521
   17.835    9.0153
   17.970    8.7098
   18.105    8.8362
   18.240    8.3412
   18.375    8.6572
   18.510    9.2048
   18.645    9.3523
   18.780    9.4471
   18.915    8.8046
   19.050    9.4471
   19.185    9.1101
   19.320    8.9205
   19.455    9.1417
   19.590    8.5835
   19.725    8.8362
   19.860    9.0469
   19.995    8.7520
   20.130    8.9837
   20.265    8.8362
   20.400    8.9837
   20.535    9.2786
   20.670    8.8046
   20.805    8.6783
   20.940    9.2048
   21.075    9.1522
   21.210    9.7420
   21.345    9.2154
   21.480    9.7314
   21.615    8.6888
   21.750    9.0047
   21.885    9.1206
   22.020    9.3944
   22.155    9.4365
   22.290    9.7209
   22.425    9.4155
   22.560    9.8262
   22.695    9.6472
   22.830   10.4687
   22.965    9.8473
   23.100    9.5103
   23.235    9.6788
   23.370    9.8262
   23.505   10.1422
   23.640    9.3102
   23.775    9.1732
   23.910    9.4050
   24.045    9.6261
   24.180    9.1838
   24.315    9.1101
   24.450    8.8046
   24.585    9.1943
   24.720    8.7414
   24.855    9.1101
   24.990    9.2575
   25.125    8.8573
   25.260    9.0785
   25.395    9.1522
   25.530    8.8784
   25.665    9.2575
   25.800    8.7730
   25.935    8.8784
   26.070    9.1206
   26.205    9.3418
   26.340    9.7736
   26.475    8.9310
   26.610    8.9731
   26.745    8.9205
   26.880    9.1522
   27.015    8.9731
   27.150    9.1522
   27.285    8.4466
   27.420    8.1938
   27.555    9.2680
   27.690    9.4681
   27.825    8.3096
   27.960    8.6677
   28.095    8.5519
   28.230    8.3939
   28.365    8.6256
   28.500    8.5729
   28.635    8.6993
   28.770    8.1727
   28.905    8.0147
   29.040    8.1095
   29.175    8.3518
   29.310    7.9410
   29.445    7.9937
   29.580    7.9621
   29.715    8.2675
   29.850    8.4150
   29.985    8.0253
   30.120    8.5097
   30.255    8.4150
   30.390    8.0779
   30.525    8.1727
   30.660    8.2886
   30.795    7.3934
   30.930    7.9094
   31.065    7.9937
   31.200    7.6672
   31.335    7.9621
   31.470    7.4566
   31.605    7.2775
   31.740    7.6672
   31.875    7.5197
   32.010    7.7199
   32.145    7.8462
   32.280    7.8252
   32.415    7.4671
   32.550    8.0358
   32.685    7.4460
   32.820    7.4039
   32.955    7.4250
   33.090    7.5092
   33.225    7.4776
   33.360    7.5724
   33.495    7.1406
   33.630    7.5724
   33.765    7.4144
   33.900    7.8568
   34.035    7.7199
   34.170    7.6040
   34.305    7.0879
   34.440    7.1090
   34.575    7.3828
   34.710    7.4355
   34.845    7.6672
   34.980    7.3512
   35.115    7.2670
   35.250    6.8141
   35.385    7.7620
   35.520    7.0563
   35.655    7.4460
   35.790    7.6145
   35.925    7.1406
   36.060    7.1827
   36.195    6.9721
   36.330    7.1722
   36.465    7.0458
   36.600    6.4982
   36.735    6.8457
   36.870    7.3407
   37.005    7.1406
   37.140    7.1933
   37.275    7.2775
   37.410    7.0458
   37.545    7.0248
   37.680    6.7930
   37.815    6.7825
   37.950    6.8878
   38.085    6.7088
   38.220    7.0353
   38.355    7.0563
   38.490    7.0458
   38.625    6.7930
   38.760    6.7509
   38.895    6.7720
   39.030    6.6877
   39.165    7.3407
   39.300    6.8984
   39.435    7.1090
   39.570    6.9721
   39.705    7.0037
   39.840    6.7509
   39.975    6.9300
   39.990    7.0669