File: data/PXRD/PXRD_KE-243_Co-Ka1_capillary-1mm_5s-deg.xyd
    1.500    6.6667
    1.635    5.2970
    1.770    4.0556
    1.905    3.3815
    2.040    2.5789
    2.175    2.2365
    2.310    1.7549
    2.445    1.7014
    2.580    1.4018
    2.715    1.1985
    2.850    1.1557
    2.985    1.1022
    3.120    0.8133
    3.255    0.9096
    3.390    0.8454
    3.525    0.8026
    3.660    0.6528
    3.795    0.7705
    3.930    0.6207
    4.065    0.7491
    4.200    0.5886
    4.335    0.5243
    4.470    0.6421
    4.605    0.4708
    4.740    0.5243
    4.875    0.5350
    5.010    0.5243
    5.145    0.6849
    5.280    0.5243
    5.415    0.5886
    5.550    0.6421
    5.685    0.6635
    5.820    0.5243
    5.955    0.4280
    6.090    0.6314
    6.225    0.4922
    6.360    0.5029
    6.495    0.6314
    6.630    0.6207
    6.765    0.4494
    6.900    0.6421
    7.035    0.4815
    7.170    0.5029
    7.305    0.5564
    7.440    0.5564
    7.575    0.5136
    7.710    0.5136
    7.845    0.5136
    7.980    0.5457
    8.115    0.5671
    8.250    0.5243
    8.385    0.5029
    8.520    0.5457
    8.655    0.6528
    8.790    0.5993
    8.925    0.4601
    9.060    0.5350
    9.195    0.4815
    9.330    0.5350
    9.465    0.6421
    9.600    0.5136
    9.735    0.6635
    9.870    0.5886
   10.005    0.6421
   10.140    0.5350
   10.275    0.5029
   10.410    0.6635
   10.545    0.5671
   10.680    0.5671
   10.815    0.6635
   10.950    0.6956
   11.085    0.6635
   11.220    0.6742
   11.355    0.5350
   11.490    0.6207
   11.625    0.6849
   11.760    0.6528
   11.895    0.5671
   12.030    0.6635
   12.165    0.5778
   12.300    0.4494
   12.435    0.5778
   12.570    0.6849
   12.705    0.6207
   12.840    0.5457
   12.975    0.6956
   13.110    0.4815
   13.245    0.5350
   13.380    0.6207
   13.515    0.4494
   13.650    0.5243
   13.785    0.4922
   13.920    0.5136
   14.055    0.5243
   14.190    0.4173
   14.325    0.4708
   14.460    0.4280
   14.595    0.4494
   14.730    0.4815
   14.865    0.5136
   15.000    0.4387
   15.135    0.4708
   15.270    0.3959
   15.405    0.4601
   15.540    0.4280
   15.675    0.5136
   15.810    0.4280
   15.945    0.5243
   16.080    0.5886
   16.215    0.4173
   16.350    0.5350
   16.485    0.4708
   16.620    0.4066
   16.755    0.5243
   16.890    0.4922
   17.025    0.5457
   17.160    0.5029
   17.295    0.4280
   17.430    0.5243
   17.565    0.4280
   17.700    0.3959
   17.835    0.3531
   17.970    0.5136
   18.105    0.4387
   18.240    0.4066
   18.375    0.5136
   18.510    0.4708
   18.645    0.4815
   18.780    0.4494
   18.915    0.4066
   19.050    0.5243
   19.185    0.5029
   19.320    0.5778
   19.455    0.5457
   19.590    0.4280
   19.725    0.5243
   19.860    0.4173
   19.995    0.5136
   20.130    0.4494
   20.265    0.6100
   20.400    0.5243
   20.535    0.4173
   20.670    0.4601
   20.805    0.4280
   20.940    0.4280
   21.075    0.5136
   21.210    0.3959
   21.345    0.4601
   21.480    0.5671
   21.615    0.4601
   21.750    0.4708
   21.885    0.6207
   22.020    0.4708
   22.155    0.5243
   22.290    0.5136
   22.425    0.4708
   22.560    0.5564
   22.695    0.5671
   22.830    0.4815
   22.965    0.4280
   23.100    0.5457
   23.235    0.4922
   23.370    0.4922
   23.505    0.4601
   23.640    0.3745
   23.775    0.4815
   23.910    0.5243
   24.045    0.4922
   24.180    0.6207
   24.315    0.5243
   24.450    0.4815
   24.585    0.4494
   24.720    0.5671
   24.855    0.5136
   24.990    0.4494
   25.125    0.4922
   25.260    0.5243
   25.395    0.5350
   25.530    0.5136
   25.665    0.4387
   25.800    0.4815
   25.935    0.5136
   26.070    0.6207
   26.205    0.5457
   26.340    0.6207
   26.475    0.5778
   26.610    0.5243
   26.745    0.3745
   26.880    0.4708
   27.015    0.4387
   27.150    0.5671
   27.285    0.5350
   27.420    0.4601
   27.555    0.5029
   27.690    0.5671
   27.825    0.5243
   27.960    0.5350
   28.095    0.5457
   28.230    0.5457
   28.365    0.6314
   28.500    0.6421
   28.635    0.4601
   28.770    0.4601
   28.905    0.4173
   29.040    0.5136
   29.175    0.5029
   29.310    0.4601
   29.445    0.4494
   29.580    0.4387
   29.715    0.5243
   29.850    0.5350
   29.985    0.4922
   30.120    0.5136
   30.255    0.5243
   30.390    0.3852
   30.525    0.4173
   30.660    0.4708
   30.795    0.4708
   30.930    0.3745
   31.065    0.3424
   31.200    0.4815
   31.335    0.4815
   31.470    0.5564
   31.605    0.4173
   31.740    0.4280
   31.875    0.4387
   32.010    0.4601
   32.145    0.4387
   32.280    0.3852
   32.415    0.4280
   32.550    0.5029
   32.685    0.4601
   32.820    0.3745
   32.955    0.4066
   33.090    0.2782
   33.225    0.4387
   33.360    0.4494
   33.495    0.3959
   33.630    0.4173
   33.765    0.3852
   33.900    0.4280
   34.035    0.3424
   34.170    0.4280
   34.305    0.4601
   34.440    0.4280
   34.575    0.3959
   34.710    0.3852
   34.845    0.3745
   34.980    0.4280
   35.115    0.2996
   35.250    0.3317
   35.385    0.4387
   35.520    0.2889
   35.655    0.3531
   35.790    0.3317
   35.925    0.3531
   36.060    0.3531
   36.195    0.3103
   36.330    0.3531
   36.465    0.2782
   36.600    0.4066
   36.735    0.2996
   36.870    0.2782
   37.005    0.3103
   37.140    0.3103
   37.275    0.4066
   37.410    0.2782
   37.545    0.2782
   37.680    0.2354
   37.815    0.2354
   37.950    0.2675
   38.085    0.4066
   38.220    0.2782
   38.355    0.2354
   38.490    0.3210
   38.625    0.3424
   38.760    0.2247
   38.895    0.3745
   39.030    0.2247
   39.165    0.3317
   39.300    0.3103
   39.435    0.2247
   39.570    0.1926
   39.705    0.3103
   39.840    0.2568
   39.975    0.2461
   39.990    0.2675