File: data/PXRD/PXRD_KE-305-3H_Cu-Ka1_capillary-1mm_3s-deg.xyd
    1.500   17.3600
    1.635   16.5701
    1.770   15.4994
    1.905   14.1127
    2.040   12.4276
    2.175   11.6728
    2.310   12.6382
    2.445   12.5329
    2.580   12.2696
    2.715   13.3228
    2.850   13.7616
    2.985   15.4116
    3.120   19.0451
    3.255   23.4158
    3.390   30.7179
    3.525   41.8466
    3.660   63.8055
    3.795  136.5631
    3.930   25.3642
    4.065    7.8813
    4.200    7.1968
    4.335    6.6175
    4.470    7.3899
    4.605    7.2845
    4.740    8.1973
    4.875    8.8468
    5.010   10.9531
    5.145   14.0425
    5.280   20.3089
    5.415   46.1120
    5.550   14.1478
    5.685    6.1787
    5.820    6.1260
    5.955    5.6872
    6.090    6.0032
    6.225    6.6877
    6.360    7.1617
    6.495    8.7239
    6.630   13.0595
    6.765   12.9542
    6.900    4.9851
    7.035    5.4590
    7.170    5.5468
    7.305    5.8803
    7.440    6.1436
    7.575    7.7760
    7.710   11.9186
    7.845    7.3723
    7.980    5.1606
    8.115    4.9149
    8.250    5.1782
    8.385    4.9851
    8.520    5.3186
    8.655    6.2489
    8.790    5.2484
    8.925    5.0553
    9.060    5.4590
    9.195    6.6000
    9.330    8.3377
    9.465   17.7813
    9.600   12.5329
    9.735    5.2308
    9.870    5.5292
   10.005    5.6872
   10.140    6.5473
   10.275   12.0414
   10.410    5.4415
   10.545    5.0202
   10.680    4.8271
   10.815    5.5643
   10.950    7.8287
   11.085    7.1968
   11.220    4.7920
   11.355    5.1255
   11.490    5.7925
   11.625    7.7760
   11.760    7.3547
   11.895    4.4234
   12.030    4.1776
   12.165    4.6165
   12.300    5.1606
   12.435    4.4585
   12.570    4.5463
   12.705    4.7218
   12.840    6.0383
   12.975    8.4781
   13.110    4.4585
   13.245    4.7042
   13.380    5.2308
   13.515    6.1962
   13.650    4.6867
   13.785    4.5989
   13.920    5.3010
   14.055    7.9516
   14.190    4.6867
   14.325    4.4585
   14.460    4.3005
   14.595    4.5638
   14.730    4.5463
   14.865    4.1601
   15.000    4.7393
   15.135    5.4239
   15.270    4.7393
   15.405    4.5111
   15.540    4.0899
   15.675    4.2654
   15.810    4.5638
   15.945    4.2127
   16.080    5.0202
   16.215    4.5989
   16.350    4.2127
   16.485    4.9149
   16.620    5.3361
   16.755    4.1425
   16.890    5.2133
   17.025    6.6877
   17.160    4.8271
   17.295    4.6340
   17.430    5.0202
   17.565    4.7569
   17.700    4.4058
   17.835    4.5989
   17.970    5.3712
   18.105    4.6691
   18.240    4.4234
   18.375    5.3186
   18.510    4.5111
   18.645    4.6340
   18.780    4.7042
   18.915    4.1074
   19.050    4.4234
   19.185    4.2303
   19.320    4.1776
   19.455    5.0202
   19.590    5.5117
   19.725    4.5814
   19.860    4.5463
   19.995    5.1080
   20.130    4.4409
   20.265    5.2308
   20.400    7.1792
   20.535    4.5111
   20.670    4.5287
   20.805    4.8271
   20.940    4.6867
   21.075    4.8095
   21.210    4.3883
   21.345    4.3532
   21.480    4.7042
   21.615    4.6516
   21.750    5.0904
   21.885    5.2133
   22.020    4.4234
   22.155    5.3537
   22.290    4.7393
   22.425    5.5117
   22.560    7.5478
   22.695    4.5638
   22.830    5.6872
   22.965    7.1617
   23.100    4.6340
   23.235    5.4064
   23.370    4.8973
   23.505    4.6691
   23.640    4.4760
   23.775    4.6691
   23.910    5.2133
   24.045    4.4234
   24.180    4.5287
   24.315    4.4058
   24.450    4.5463
   24.585    4.4409
   24.720    4.6165
   24.855    4.6340
   24.990    4.7393
   25.125    4.1074
   25.260    4.4760
   25.395    5.0026
   25.530    4.8798
   25.665    4.4058
   25.800    6.4244
   25.935    4.8798
   26.070    4.5463
   26.205    3.9143
   26.340    4.5287
   26.475    5.0904
   26.610    4.3707
   26.745    4.2654
   26.880    4.2478
   27.015    5.0202
   27.150    4.4234
   27.285    4.4058
   27.420    4.3883
   27.555    4.6340
   27.690    4.4409
   27.825    4.2478
   27.960    4.3181
   28.095    4.6516
   28.230    5.1606
   28.365    4.1776
   28.500    5.3010
   28.635    4.2654
   28.770    4.5989
   28.905    3.8441
   29.040    3.9494
   29.175    3.9670
   29.310    4.2303
   29.445    3.7915
   29.580    3.9319
   29.715    3.9670
   29.850    4.0723
   29.985    4.0723
   30.120    3.8266
   30.255    3.9846
   30.390    3.6686
   30.525    3.7915
   30.660    4.1952
   30.795    4.0899
   30.930    4.0372
   31.065    3.9846
   31.200    3.7564
   31.335    3.5808
   31.470    3.7739
   31.605    3.4931
   31.740    4.4936
   31.875    4.0197
   32.010    4.0723
   32.145    3.7037
   32.280    3.8090
   32.415    3.7213
   32.550    3.4931
   32.685    3.4404
   32.820    3.9846
   32.955    3.5633
   33.090    3.6335
   33.225    3.3351
   33.360    3.5457
   33.495    3.6335
   33.630    3.5808
   33.765    3.3877
   33.900    4.3707
   34.035    3.3877
   34.170    4.0197
   34.305    3.6862
   34.440    3.4053
   34.575    3.6510
   34.710    3.5457
   34.845    3.2824
   34.980    3.7388
   35.115    3.1771
   35.250    3.2649
   35.385    3.1596
   35.520    3.7739
   35.655    3.4931
   35.790    3.2473
   35.925    3.0367
   36.060    3.4931
   36.195    3.2122
   36.330    3.4053
   36.465    3.3175
   36.600    3.5282
   36.735    3.4580
   36.870    2.7909
   37.005    3.3351
   37.140    3.4755
   37.275    2.9665
   37.410    3.0367
   37.545    3.2649
   37.680    3.2824
   37.815    3.1596
   37.950    2.8787
   38.085    2.7383
   38.220    3.1420
   38.355    2.8260
   38.490    3.0893
   38.625    2.7909
   38.760    2.5628
   38.895    3.0893
   39.030    3.0893
   39.165    3.1596
   39.300    3.1771
   39.435    3.1947
   39.570    3.0367
   39.705    3.0542
   39.840    3.3877
   39.975    2.9840
   39.990    2.5979