File: data/PXRD/PXRD_KE-227-2_Co-Ka1_film-3mm_5s-deg.xyd
    1.500    4.1627
    1.635    3.6383
    1.770    2.8892
    1.905    2.9535
    2.040    2.5361
    2.175    2.2258
    2.310    2.1937
    2.445    2.0760
    2.580    1.9048
    2.715    1.9262
    2.850    1.8513
    2.985    1.7121
    3.120    1.6693
    3.255    1.4981
    3.390    1.6586
    3.525    1.6051
    3.660    1.5302
    3.795    1.4446
    3.930    1.6372
    4.065    1.9476
    4.200    2.1295
    4.335    2.5468
    4.470    5.0401
    4.605    2.1188
    4.740    1.4232
    4.875    1.6265
    5.010    1.6158
    5.145    1.4660
    5.280    1.3804
    5.415    1.4125
    5.550    1.4660
    5.685    1.4553
    5.820    1.7657
    5.955    1.8513
    6.090    1.8406
    6.225    1.8192
    6.360    2.7715
    6.495    2.0011
    6.630    1.9155
    6.765    1.9690
    6.900    1.8085
    7.035    1.5730
    7.170    1.4660
    7.305    1.4874
    7.440    1.3162
    7.575    1.3055
    7.710    1.3483
    7.845    1.4232
    7.980    1.3162
    8.115    1.2413
    8.250    1.0594
    8.385    1.0808
    8.520    1.0808
    8.655    1.1022
    8.790    1.1771
    8.925    1.0059
    9.060    1.2520
    9.195    1.0273
    9.330    0.9845
    9.465    0.8989
    9.600    1.0701
    9.735    1.0166
    9.870    0.9738
   10.005    0.9310
   10.140    0.9738
   10.275    0.7170
   10.410    0.7491
   10.545    0.8454
   10.680    1.0380
   10.815    0.7812
   10.950    0.7598
   11.085    1.1236
   11.220    0.8133
   11.355    0.7063
   11.490    0.8240
   11.625    0.7705
   11.760    0.6956
   11.895    0.7705
   12.030    1.1343
   12.165    0.9203
   12.300    0.9096
   12.435    0.8668
   12.570    0.8561
   12.705    0.9096
   12.840    1.0487
   12.975    0.9952
   13.110    0.8668
   13.245    0.6849
   13.380    0.8775
   13.515    0.7491
   13.650    1.0594
   13.785    0.9845
   13.920    0.9096
   14.055    0.8240
   14.190    0.8775
   14.325    0.8775
   14.460    0.9310
   14.595    0.8240
   14.730    0.9952
   14.865    0.7812
   15.000    0.9417
   15.135    0.7598
   15.270    0.8454
   15.405    0.9738
   15.540    0.7812
   15.675    0.8882
   15.810    0.8882
   15.945    0.8989
   16.080    0.8668
   16.215    0.8133
   16.350    0.6849
   16.485    0.7919
   16.620    1.0166
   16.755    0.9096
   16.890    1.1343
   17.025    0.7491
   17.160    0.8133
   17.295    0.6849
   17.430    0.6528
   17.565    0.7812
   17.700    0.8133
   17.835    0.8026
   17.970    0.6742
   18.105    0.7705
   18.240    0.7919
   18.375    0.8668
   18.510    0.8775
   18.645    0.8989
   18.780    0.8133
   18.915    0.8026
   19.050    0.8133
   19.185    0.8133
   19.320    0.8347
   19.455    0.9417
   19.590    0.8989
   19.725    0.7384
   19.860    0.9738
   19.995    0.8240
   20.130    0.8561
   20.265    0.8668
   20.400    0.6635
   20.535    0.9417
   20.670    0.9096
   20.805    0.8026
   20.940    0.6956
   21.075    0.6956
   21.210    0.8668
   21.345    0.8347
   21.480    0.6635
   21.615    0.6742
   21.750    0.8775
   21.885    0.7598
   22.020    0.7919
   22.155    0.5564
   22.290    0.8133
   22.425    0.7277
   22.560    0.8133
   22.695    0.7063
   22.830    0.6849
   22.965    0.7919
   23.100    0.7491
   23.235    0.7277
   23.370    0.7491
   23.505    0.8133
   23.640    0.6528
   23.775    0.9417
   23.910    0.6528
   24.045    0.6528
   24.180    0.7063
   24.315    0.8240
   24.450    0.6421
   24.585    0.6742
   24.720    0.7705
   24.855    0.6314
   24.990    0.6528
   25.125    0.6742
   25.260    0.6635
   25.395    0.7812
   25.530    0.6100
   25.665    0.6956
   25.800    0.7170
   25.935    0.5243
   26.070    0.6635
   26.205    0.6207
   26.340    0.6742
   26.475    0.6421
   26.610    0.5564
   26.745    0.6849
   26.880    0.5778
   27.015    0.5778
   27.150    0.5243
   27.285    0.5993
   27.420    0.5886
   27.555    0.6528
   27.690    0.5671
   27.825    0.5993
   27.960    0.6421
   28.095    0.5993
   28.230    0.6742
   28.365    0.4280
   28.500    0.4815
   28.635    0.5778
   28.770    0.5778
   28.905    0.5457
   29.040    0.5993
   29.175    0.4708
   29.310    0.6635
   29.445    0.5136
   29.580    0.5029
   29.715    0.4815
   29.850    0.5457
   29.985    0.5029
   30.120    0.6742
   30.255    0.6314
   30.390    0.5350
   30.525    0.5136
   30.660    0.5778
   30.795    0.4601
   30.930    0.5778
   31.065    0.4601
   31.200    0.5029
   31.335    0.3852
   31.470    0.3745
   31.605    0.5457
   31.740    0.4815
   31.875    0.3959
   32.010    0.5136
   32.145    0.4280
   32.280    0.3959
   32.415    0.4815
   32.550    0.4815
   32.685    0.3638
   32.820    0.4815
   32.955    0.4922
   33.090    0.5350
   33.225    0.4494
   33.360    0.5457
   33.495    0.5136
   33.630    0.4173
   33.765    0.5457
   33.900    0.3531
   34.035    0.3638
   34.170    0.3638
   34.305    0.4815
   34.440    0.3531
   34.575    0.3745
   34.710    0.3531
   34.845    0.2996
   34.980    0.2996
   35.115    0.4066
   35.250    0.3531
   35.385    0.3317
   35.520    0.4280
   35.655    0.3745
   35.790    0.3424
   35.925    0.3852
   36.060    0.3103
   36.195    0.2782
   36.330    0.2782
   36.465    0.3531
   36.600    0.2996
   36.735    0.2996
   36.870    0.2568
   37.005    0.3424
   37.140    0.1926
   37.275    0.3317
   37.410    0.2996
   37.545    0.1926
   37.680    0.2782
   37.815    0.3317
   37.950    0.3103
   38.085    0.3317
   38.220    0.3317
   38.355    0.3210
   38.490    0.3638
   38.625    0.2140
   38.760    0.2675
   38.895    0.2996
   39.030    0.2675
   39.165    0.3103
   39.300    0.3424
   39.435    0.2568
   39.570    0.2568
   39.705    0.2033
   39.840    0.2354
   39.975    0.2354
   39.990    0.2996