File: data/PXRD/PXRD_KE-050_Cu-Ka1_capillary-1mm_46s-deg.xyd
    1.500   21.2114
    1.635   20.3528
    1.770   19.2058
    1.905   18.6254
    2.040   17.7382
    2.175   17.6042
    2.310   17.3593
    2.445   17.3844
    2.580   18.1617
    2.715   19.3569
    2.850   20.9870
    2.985   23.4380
    3.120   27.1688
    3.255   33.0586
    3.390   42.4136
    3.525   57.5497
    3.660   83.4364
    3.795  144.6413
    3.930  294.9848
    4.065   12.2605
    4.200   10.3899
    4.335    9.9068
    4.470    9.9331
    4.605   10.2754
    4.740   10.9669
    4.875   11.9651
    5.010   14.1722
    5.145   17.7233
    5.280   24.7911
    5.415   41.9248
    5.550   85.7007
    5.685    9.0036
    5.820    8.2332
    5.955    8.0511
    6.090    8.1244
    6.225    8.2938
    6.360    8.7140
    6.495    9.4375
    6.630   11.4958
    6.765   20.1845
    6.900    7.6070
    7.035    7.5371
    7.170    7.6883
    7.305    7.9905
    7.440    8.8227
    7.575   10.7093
    7.710   15.7360
    7.845   29.2202
    7.980    7.3070
    8.115    7.0335
    8.250    6.9819
    8.385    7.1342
    8.520    7.2407
    8.655    7.9218
    8.790    8.7575
    8.925    7.0346
    9.060    7.3162
    9.195    8.4312
    9.330   11.2531
    9.465   19.8915
    9.600   49.2696
    9.735    7.0335
    9.870    6.9671
   10.005    7.1319
   10.140    7.7924
   10.275   11.0161
   10.410   11.5427
   10.545    6.6110
   10.680    6.7908
   10.815    7.5955
   10.950   10.0316
   11.085   19.4164
   11.220    6.4153
   11.355    6.6397
   11.490    7.0254
   11.625    9.0940
   11.760   16.7914
   11.895    6.2939
   12.030    6.2252
   12.165    6.3580
   12.300    6.7667
   12.435    7.0392
   12.570    6.2081
   12.705    6.4553
   12.840    7.2326
   12.975   11.7259
   13.110    6.2710
   13.245    6.1485
   13.380    6.5046
   13.515    7.9527
   13.650    7.0289
   13.785    6.1726
   13.920    6.8205
   14.055    8.9418
   14.190    9.2062
   14.325    6.1680
   14.460    6.0753
   14.595    5.9642
   14.730    6.1795
   14.865    6.0844
   15.000    6.3992
   15.135    7.1296
   15.270    6.3603
   15.405    5.9848
   15.540    6.0650
   15.675    5.8841
   15.810    6.0066
   15.945    6.1371
   16.080    6.8045
   16.215    7.5658
   16.350    5.9871
   16.485    6.2596
   16.620    7.1079
   16.755    6.0821
   16.890    6.5790
   17.025    8.9899
   17.160   10.2457
   17.295    6.1131
   17.430    6.3935
   17.565    7.3483
   17.700    6.0238
   17.835    6.3420
   17.970    7.0323
   18.105    6.2149
   18.240    6.3329
   18.375    7.1182
   18.510    6.4508
   18.645    6.0867
   18.780    6.5046
   18.915    6.2619
   19.050    6.1360
   19.185    6.1737
   19.320    6.1840
   19.455    6.2184
   19.590    7.4295
   19.725    6.7999
   19.860    6.1932
   19.995    6.3764
   20.130    6.2962
   20.265    6.4897
   20.400    9.6481
   20.535    6.6122
   20.670    6.1199
   20.805    6.3363
   20.940    6.0707
   21.075    6.1245
   21.210    6.2859
   21.345    6.1726
   21.480    6.0547
   21.615    6.1016
   21.750    6.2905
   21.885    7.6001
   22.020    6.4050
   22.155    6.5504
   22.290    7.3219
   22.425    6.5790
   22.560   10.2377
   22.695    8.4243
   22.830    7.3254
   22.965   10.9383
   23.100    6.4485
   23.235    7.2258
   23.370    6.9316
   23.505    6.3100
   23.640    6.6213
   23.775    6.3512
   23.910    7.4215
   24.045    6.9808
   24.180    6.3248
   24.315    6.4508
   24.450    6.0283
   24.585    6.6706
   24.720    6.1737
   24.855    6.3661
   24.990    6.2252
   25.125    6.1291
   25.260    6.7930
   25.395    6.1073
   25.530    6.4943
   25.665    6.2069
   25.800    8.3122
   25.935    8.1187
   26.070    6.0535
   26.205    6.3580
   26.340    6.0959
   26.475    6.9213
   26.610    5.8429
   26.745    5.8234
   26.880    5.9081
   27.015    7.1308
   27.150    6.4450
   27.285    5.8990
   27.420    5.8223
   27.555    6.3615
   27.690    6.5595
   27.825    5.9379
   27.960    6.2275
   28.095    6.1714
   28.230    7.3906
   28.365    6.0421
   28.500    6.9854
   28.635    5.7982
   28.770    5.8841
   28.905    5.7788
   29.040    6.0169
   29.175    5.7925
   29.310    6.7347
   29.445    5.8578
   29.580    5.6552
   29.715    5.6941
   29.850    5.9425
   29.985    5.7273
   30.120    5.8440
   30.255    5.5246
   30.390    5.7376
   30.525    5.5956
   30.660    6.0570
   30.795    5.5876
   30.930    5.5224
   31.065    5.3220
   31.200    5.3186
   31.335    5.4617
   31.470    5.8440
   31.605    5.6094
   31.740    5.5613
   31.875    5.5453
   32.010    5.5796
   32.145    5.7067
   32.280    5.2602
   32.415    5.2488
   32.550    5.2705
   32.685    5.0610
   32.820    5.2350
   32.955    5.5899
   33.090    5.0896
   33.225    5.0873
   33.360    5.0576
   33.495    5.0645
   33.630    5.2156
   33.765    5.2350
   33.900    5.6849
   34.035    5.2178
   34.170    5.2144
   34.305    5.0862
   34.440    4.9855
   34.575    4.9832
   34.710    4.9878
   34.845    5.2053
   34.980    4.9546
   35.115    4.7565
   35.250    4.8092
   35.385    4.8080
   35.520    4.7325
   35.655    4.8641
   35.790    4.7714
   35.925    4.9878
   36.060    4.8664
   36.195    4.7954
   36.330    4.8252
   36.465    4.6672
   36.600    4.7416
   36.735    4.7954
   36.870    4.6329
   37.005    4.6752
   37.140    5.1125
   37.275    4.6775
   37.410    4.5917
   37.545    4.6329
   37.680    4.6798
   37.815    4.6844
   37.950    4.7016
   38.085    4.7187
   38.220    4.5356
   38.355    4.5791
   38.490    4.6077
   38.625    4.5871
   38.760    4.4234
   38.895    4.5791
   39.030    4.4234
   39.165    4.4486
   39.300    4.6283
   39.435    4.5482
   39.570    4.5619
   39.705    4.6031
   39.840    4.5195
   39.975    4.4646
   39.990    4.5390