File: data/PXRD/PXRD_KE-005_Cu-Ka1_capillary-1mm_5s-deg.xyd
    1.500   27.9410
    1.635   23.6546
    1.770   19.3154
    1.905   15.8189
    2.040   14.6393
    2.175   12.2696
    2.310   11.8378
    2.445   11.4376
    2.580   10.0474
    2.715   10.6056
    2.850   11.2375
    2.985   12.0274
    3.120   12.8067
    3.255   14.1759
    3.390   16.8404
    3.525   19.7788
    3.660   19.7578
    3.795   16.0400
    3.930   13.5124
    4.065   10.4265
    4.200   10.3212
    4.335    9.2680
    4.470    8.2675
    4.605    8.3412
    4.740    7.6567
    4.875    8.0779
    5.010    8.0253
    5.145    7.2249
    5.280    7.2565
    5.415    7.1301
    5.550    6.8562
    5.685    7.0774
    5.820    6.4139
    5.955    6.1927
    6.090    5.9926
    6.225    6.3086
    6.360    5.9294
    6.495    5.8662
    6.630    5.6451
    6.765    6.4666
    6.900    6.6140
    7.035    7.2143
    7.170    7.4039
    7.305    6.9405
    7.440    6.4244
    7.575    5.8557
    7.710    5.4660
    7.845    5.1711
    7.980    5.0658
    8.115    4.8447
    8.250    4.6972
    8.385    4.7815
    8.520    4.3286
    8.655    4.3813
    8.790    4.1706
    8.925    4.2654
    9.060    4.1917
    9.195    4.3707
    9.330    4.0548
    9.465    3.9389
    9.600    4.1706
    9.735    4.2549
    9.870    4.3181
   10.005    4.0337
   10.140    4.1706
   10.275    4.2443
   10.410    4.0337
   10.545    4.0864
   10.680    4.1917
   10.815    3.9916
   10.950    4.5708
   11.085    4.3075
   11.220    3.9916
   11.355    4.4234
   11.490    4.4023
   11.625    4.0126
   11.760    4.2654
   11.895    4.0337
   12.030    3.9494
   12.165    4.0758
   12.300    4.3286
   12.435    4.2443
   12.570    4.2443
   12.705    4.1811
   12.840    4.3813
   12.975    4.2127
   13.110    3.8125
   13.245    4.2338
   13.380    4.0232
   13.515    4.1917
   13.650    3.9600
   13.785    3.9810
   13.920    4.0442
   14.055    4.1811
   14.190    3.8547
   14.325    4.3918
   14.460    4.5182
   14.595    3.9810
   14.730    4.1811
   14.865    4.0969
   15.000    4.1601
   15.135    4.1180
   15.270    3.9389
   15.405    3.8020
   15.540    4.1917
   15.675    4.0337
   15.810    4.2022
   15.945    4.4023
   16.080    4.2338
   16.215    4.3075
   16.350    4.5498
   16.485    4.2654
   16.620    4.1180
   16.755    4.3391
   16.890    4.2233
   17.025    4.3181
   17.160    4.3602
   17.295    4.2654
   17.430    4.2970
   17.565    4.4234
   17.700    4.5182
   17.835    4.5076
   17.970    4.8657
   18.105    5.0658
   18.240    4.7815
   18.375    4.8973
   18.510    5.0658
   18.645    5.1606
   18.780    4.8025
   18.915    4.9500
   19.050    4.8447
   19.185    5.0764
   19.320    4.6867
   19.455    5.0132
   19.590    4.3286
   19.725    4.5498
   19.860    4.7709
   19.995    4.4339
   20.130    4.4234
   20.265    4.3813
   20.400    4.3602
   20.535    4.5603
   20.670    4.5498
   20.805    4.6656
   20.940    4.9184
   21.075    4.4550
   21.210    4.5814
   21.345    4.7499
   21.480    4.8236
   21.615    4.6340
   21.750    4.7288
   21.885    4.8657
   22.020    4.9710
   22.155    4.4655
   22.290    4.6867
   22.425    4.8763
   22.560    4.4760
   22.695    4.6656
   22.830    4.5708
   22.965    4.5287
   23.100    4.4444
   23.235    4.2970
   23.370    4.2443
   23.505    4.2970
   23.640    4.4760
   23.775    4.5182
   23.910    4.2759
   24.045    4.4655
   24.180    4.3707
   24.315    4.6867
   24.450    4.2127
   24.585    4.3707
   24.720    4.3391
   24.855    4.5919
   24.990    4.2338
   25.125    4.0442
   25.260    4.3918
   25.395    3.9705
   25.530    3.8863
   25.665    3.7809
   25.800    3.8125
   25.935    4.1180
   26.070    3.7072
   26.205    4.0337
   26.340    4.0653
   26.475    3.6124
   26.610    3.6651
   26.745    3.8336
   26.880    3.7283
   27.015    3.6440
   27.150    3.6756
   27.285    3.4755
   27.420    3.2227
   27.555    3.5492
   27.690    3.2543
   27.825    3.4334
   27.960    3.6335
   28.095    3.4860
   28.230    3.3597
   28.365    3.4123
   28.500    3.4123
   28.635    3.2543
   28.770    3.2122
   28.905    3.2754
   29.040    2.9173
   29.175    3.4229
   29.310    3.0858
   29.445    2.9173
   29.580    2.9805
   29.715    3.2438
   29.850    2.9068
   29.985    3.4123
   30.120    3.1385
   30.255    2.7383
   30.390    2.8225
   30.525    2.9384
   30.660    2.9489
   30.795    3.0332
   30.930    2.9173
   31.065    2.8963
   31.200    2.7699
   31.335    2.6962
   31.470    2.6751
   31.605    3.1385
   31.740    2.7067
   31.875    2.3697
   32.010    2.4434
   32.145    2.6435
   32.280    2.4223
   32.415    2.5698
   32.550    2.5487
   32.685    2.2538
   32.820    2.4539
   32.955    2.2643
   33.090    2.4645
   33.225    2.4434
   33.360    2.3907
   33.495    2.3802
   33.630    2.3275
   33.765    2.4434
   33.900    2.2222
   34.035    2.3907
   34.170    2.1906
   34.305    2.0958
   34.440    2.0326
   34.575    2.1906
   34.710    2.0326
   34.845    2.0642
   34.980    2.1169
   35.115    2.0958
   35.250    1.9168
   35.385    1.8957
   35.520    1.9168
   35.655    2.1696
   35.790    2.1274
   35.925    1.9589
   36.060    1.8115
   36.195    1.8009
   36.330    1.7588
   36.465    1.7588
   36.600    1.9063
   36.735    1.7694
   36.870    1.4955
   37.005    1.6430
   37.140    1.5587
   37.275    1.5798
   37.410    1.5482
   37.545    1.6114
   37.680    1.7904
   37.815    1.5587
   37.950    1.6956
   38.085    1.6535
   38.220    1.4850
   38.355    1.6324
   38.490    1.4429
   38.625    1.5482
   38.760    1.4850
   38.895    1.7167
   39.030    1.6640
   39.165    1.6430
   39.300    1.5798
   39.435    1.4850
   39.570    1.7483
   39.705    1.3060
   39.840    1.4850
   39.975    1.6956
   39.990    1.5166