File: data/PXRD/PXRD_KE-263_Co-Ka1_film-3mm_30s-deg.xyd
    1.500    3.1550
    1.635    2.7091
    1.770    2.4362
    1.905    2.2472
    2.040    2.1152
    2.175    1.9422
    2.310    1.9137
    2.445    1.6622
    2.580    1.6729
    2.715    1.6515
    2.850    1.5909
    2.985    1.5766
    3.120    1.5249
    3.255    1.4411
    3.390    1.4589
    3.525    1.4464
    3.660    1.4268
    3.795    1.3893
    3.930    1.3661
    4.065    1.4107
    4.200    1.3661
    4.335    1.4107
    4.470    1.3109
    4.605    1.4090
    4.740    1.3733
    4.875    1.4339
    5.010    1.4232
    5.145    1.4571
    5.280    1.4250
    5.415    1.4571
    5.550    1.3715
    5.685    1.4054
    5.820    1.5588
    5.955    1.6497
    6.090    1.7496
    6.225    1.8013
    6.360    1.9815
    6.495    1.9476
    6.630    1.8120
    6.765    1.7335
    6.900    1.5837
    7.035    1.4785
    7.170    1.4232
    7.305    1.4232
    7.440    1.2645
    7.575    1.2984
    7.710    1.2574
    7.845    1.2092
    7.980    1.2128
    8.115    1.1825
    8.250    1.0754
    8.385    1.0951
    8.520    1.1182
    8.655    1.0130
    8.790    1.0861
    8.925    1.0719
    9.060    1.0380
    9.195    0.9203
    9.330    0.9649
    9.465    0.9274
    9.600    0.9149
    9.735    0.8543
    9.870    0.8828
   10.005    0.8632
   10.140    0.8579
   10.275    0.8828
   10.410    0.7544
   10.545    0.8151
   10.680    0.7829
   10.815    0.9185
   10.950    0.7508
   11.085    0.8097
   11.220    0.8614
   11.355    0.8561
   11.490    0.8347
   11.625    0.8472
   11.760    0.7687
   11.895    0.8436
   12.030    0.8275
   12.165    0.8721
   12.300    0.8543
   12.435    0.8543
   12.570    0.8489
   12.705    0.8418
   12.840    0.8828
   12.975    0.8793
   13.110    0.8507
   13.245    0.9114
   13.380    0.8579
   13.515    0.8329
   13.650    0.8525
   13.785    0.8721
   13.920    0.7758
   14.055    0.8186
   14.190    0.8525
   14.325    0.8204
   14.460    0.8561
   14.595    0.8525
   14.730    0.8293
   14.865    0.8061
   15.000    0.7544
   15.135    0.7651
   15.270    0.7419
   15.405    0.7669
   15.540    0.7901
   15.675    0.7116
   15.810    0.8472
   15.945    0.7883
   16.080    0.8008
   16.215    0.7562
   16.350    0.8133
   16.485    0.8186
   16.620    0.8882
   16.755    0.9684
   16.890    0.8721
   17.025    0.8133
   17.160    0.8775
   17.295    0.8525
   17.430    0.8008
   17.565    0.8293
   17.700    0.8311
   17.835    0.8365
   17.970    0.7241
   18.105    0.7080
   18.240    0.7669
   18.375    0.7722
   18.510    0.8079
   18.645    0.7794
   18.780    0.7651
   18.915    0.8026
   19.050    0.7651
   19.185    0.7633
   19.320    0.8008
   19.455    0.6884
   19.590    0.7758
   19.725    0.7633
   19.860    0.7829
   19.995    0.7455
   20.130    0.7348
   20.265    0.7437
   20.400    0.7580
   20.535    0.7437
   20.670    0.7526
   20.805    0.7455
   20.940    0.7526
   21.075    0.7080
   21.210    0.6884
   21.345    0.7401
   21.480    0.7526
   21.615    0.7063
   21.750    0.7455
   21.885    0.7063
   22.020    0.7651
   22.155    0.6956
   22.290    0.7526
   22.425    0.7277
   22.560    0.7366
   22.695    0.6617
   22.830    0.6742
   22.965    0.7080
   23.100    0.7080
   23.235    0.6973
   23.370    0.6652
   23.505    0.6528
   23.640    0.6367
   23.775    0.6224
   23.910    0.6759
   24.045    0.6706
   24.180    0.6403
   24.315    0.6652
   24.450    0.6189
   24.585    0.6421
   24.720    0.6831
   24.855    0.6207
   24.990    0.6617
   25.125    0.6367
   25.260    0.6278
   25.395    0.6082
   25.530    0.6046
   25.665    0.6831
   25.800    0.6331
   25.935    0.5975
   26.070    0.5814
   26.205    0.5582
   26.340    0.6314
   26.475    0.6189
   26.610    0.5582
   26.745    0.5886
   26.880    0.4869
   27.015    0.5921
   27.150    0.6028
   27.285    0.5564
   27.420    0.5814
   27.555    0.5761
   27.690    0.5440
   27.825    0.5261
   27.960    0.5065
   28.095    0.4780
   28.230    0.5297
   28.365    0.6581
   28.500    0.5083
   28.635    0.5279
   28.770    0.4958
   28.905    0.5547
   29.040    0.4584
   29.175    0.5279
   29.310    0.4726
   29.445    0.5154
   29.580    0.6367
   29.715    0.5083
   29.850    0.5012
   29.985    0.5119
   30.120    0.5903
   30.255    0.6028
   30.390    0.5172
   30.525    0.4548
   30.660    0.4744
   30.795    0.4780
   30.930    0.4744
   31.065    0.4744
   31.200    0.4905
   31.335    0.6706
   31.470    0.5243
   31.605    0.4958
   31.740    0.3995
   31.875    0.5618
   32.010    0.5119
   32.145    0.4173
   32.280    0.4280
   32.415    0.4548
   32.550    0.4245
   32.685    0.4298
   32.820    0.4120
   32.955    0.4459
   33.090    0.4120
   33.225    0.4280
   33.360    0.4084
   33.495    0.4387
   33.630    0.4566
   33.765    0.4387
   33.900    0.4031
   34.035    0.3995
   34.170    0.4013
   34.305    0.4031
   34.440    0.3620
   34.575    0.3781
   34.710    0.3228
   34.845    0.3460
   34.980    0.3603
   35.115    0.3620
   35.250    0.3781
   35.385    0.3781
   35.520    0.3014
   35.655    0.3496
   35.790    0.3282
   35.925    0.3513
   36.060    0.3549
   36.195    0.2925
   36.330    0.3085
   36.465    0.3389
   36.600    0.3175
   36.735    0.2925
   36.870    0.3121
   37.005    0.2764
   37.140    0.3299
   37.275    0.2854
   37.410    0.2925
   37.545    0.3068
   37.680    0.2996
   37.815    0.3175
   37.950    0.2764
   38.085    0.2622
   38.220    0.2836
   38.355    0.2836
   38.490    0.2497
   38.625    0.2354
   38.760    0.2996
   38.895    0.2604
   39.030    0.2390
   39.165    0.2212
   39.300    0.2675
   39.435    0.2229
   39.570    0.2533
   39.705    0.2408
   39.840    0.2140
   39.975    0.2140
   39.990    0.2461