File: data/PXRD/PXRD_KE-322B_Cu-Ka1_film-3mm_3s-deg.xyd
    1.500   16.2717
    1.665   13.6037
    1.830   13.2350
    1.995   11.7430
    2.160   11.3042
    2.325   10.2335
    2.490    9.7771
    2.655    9.3734
    2.820    9.4260
    2.985    9.4962
    3.150   10.0755
    3.315   11.3217
    3.480   13.2701
    3.645   19.2031
    3.810   34.8780
    3.975   13.5861
    4.140    9.9877
    4.305    8.2675
    4.470    8.4606
    4.635    8.2324
    4.800    8.4430
    4.965    8.8292
    5.130    9.5664
    5.295   11.0585
    5.460   13.4983
    5.625    9.3207
    5.790    8.5484
    5.955    7.7936
    6.120    7.9164
    6.285    7.0739
    6.450    7.7409
    6.615    7.1266
    6.780    7.6180
    6.945    6.8808
    7.110    6.9686
    7.275    6.2138
    7.440    6.4420
    7.605    6.7930
    7.770    7.9516
    7.935    6.2840
    8.100    6.1962
    8.265    5.8803
    8.430    6.1962
    8.595    6.2313
    8.760    6.2138
    8.925    6.0734
    9.090    6.0032
    9.255    6.1436
    9.420    6.8457
    9.585    7.3372
    9.750    6.0734
    9.915    5.7750
   10.080    6.0032
   10.245    6.7053
   10.410    5.9505
   10.575    5.6345
   10.740    6.1787
   10.905    6.0909
   11.070    5.6697
   11.235    5.7925
   11.400    5.7399
   11.565    5.9856
   11.730    6.0734
   11.895    5.8101
   12.060    5.5819
   12.225    5.3010
   12.390    5.2659
   12.555    5.7750
   12.720    5.0553
   12.885    6.1611
   13.050    5.5117
   13.215    5.0553
   13.380    5.1782
   13.545    5.5994
   13.710    5.3712
   13.875    5.7574
   14.040    6.0558
   14.205    5.5994
   14.370    5.5117
   14.535    5.7399
   14.700    5.2835
   14.865    5.2484
   15.030    5.3361
   15.195    5.1606
   15.360    5.0202
   15.525    5.4590
   15.690    4.9500
   15.855    4.5638
   16.020    5.2659
   16.185    5.4064
   16.350    5.2133
   16.515    5.2835
   16.680    5.1606
   16.845    5.2835
   17.010    5.6872
   17.175    5.5643
   17.340    5.1431
   17.505    5.3010
   17.670    4.9675
   17.835    4.9851
   18.000    5.3186
   18.165    5.5819
   18.330    4.9149
   18.495    5.1957
   18.660    5.1431
   18.825    5.1080
   18.990    5.4766
   19.155    5.0553
   19.320    5.3712
   19.485    4.9149
   19.650    5.0553
   19.815    4.6516
   19.980    4.9324
   20.145    5.0553
   20.310    5.3888
   20.475    5.1957
   20.640    4.7393
   20.805    4.8798
   20.970    5.0026
   21.135    5.7925
   21.300    5.1255
   21.465    4.9675
   21.630    4.9851
   21.795    5.1957
   21.960    5.0202
   22.125    4.6340
   22.290    5.2484
   22.455    5.4941
   22.620    5.4064
   22.785    5.0026
   22.950    5.3537
   23.115    5.0202
   23.280    4.3356
   23.445    4.7042
   23.610    4.8271
   23.775    4.6867
   23.940    4.5463
   24.105    4.5638
   24.270    4.2478
   24.435    4.1776
   24.600    4.3707
   24.765    4.3005
   24.930    4.5638
   25.095    4.3532
   25.260    4.2654
   25.425    4.3707
   25.590    4.7744
   25.755    4.4234
   25.920    4.8447
   26.085    4.4936
   26.250    3.8968
   26.415    3.9494
   26.580    4.0548
   26.745    4.1074
   26.910    4.0197
   27.075    3.8441
   27.240    4.2830
   27.405    4.3005
   27.570    4.2654
   27.735    4.1250
   27.900    4.1250
   28.065    4.3883
   28.230    3.8441
   28.395    3.7739
   28.560    3.4931
   28.725    4.1074
   28.890    3.9670
   29.055    4.2478
   29.220    3.9143
   29.385    3.8792
   29.550    3.4931
   29.715    4.0021
   29.880    3.8968
   30.045    3.6159
   30.210    3.5808
   30.375    4.1074
   30.540    3.2824
   30.705    4.1952
   30.870    3.6862
   31.035    3.6686
   31.200    3.3175
   31.365    3.6862
   31.530    3.3702
   31.695    3.8441
   31.860    3.4404
   32.025    3.3702
   32.190    3.4931
   32.355    3.2473
   32.520    3.5457
   32.685    3.3702
   32.850    3.6335
   33.015    3.5984
   33.180    3.6510
   33.345    3.3175
   33.510    3.6510
   33.675    3.2473
   33.840    3.5457
   34.005    3.4404
   34.170    3.0542
   34.335    3.3000
   34.500    3.2824
   34.665    3.6335
   34.830    3.0542
   34.995    3.3000
   35.160    3.5106
   35.325    3.2122
   35.490    3.3877
   35.655    3.4931
   35.820    3.2473
   35.985    3.5808
   36.150    3.5282
   36.315    3.5984
   36.480    2.6330
   36.645    3.7213
   36.810    3.6862
   36.975    2.9665
   37.140    3.2298
   37.305    3.2298
   37.470    3.1771
   37.635    3.2473
   37.800    3.1420
   37.965    3.3877
   38.130    3.2824
   38.295    3.4053
   38.460    3.3702
   38.625    3.2649
   38.790    3.1069
   38.955    2.9489
   39.120    3.3877
   39.285    3.1245
   39.450    3.3351
   39.615    3.0893
   39.780    2.6681
   39.945    3.3000
   40.110    3.1069
   40.275    3.6335
   40.440    3.2649
   40.605    3.0718
   40.770    3.2473
   40.935    3.5106
   41.100    3.1245
   41.265    2.8612
   41.430    3.3175
   41.595    3.1596
   41.760    3.4931
   41.925    3.2122
   42.090    3.3000
   42.255    3.3000
   42.420    3.4053
   42.585    2.8260
   42.750    3.0191
   42.915    3.1947
   43.080    2.7558
   43.245    3.3175
   43.410    3.1245
   43.575    3.1420
   43.740    2.9489
   43.905    3.4229
   44.070    3.2298
   44.235    3.4404
   44.400    3.2298
   44.565    3.1420
   44.730    3.1420
   44.895    3.1596
   45.060    3.4053
   45.225    3.3175
   45.390    2.5979
   45.555    3.1420
   45.720    3.0367
   45.885    3.1771
   46.050    3.1596
   46.215    3.0542
   46.380    2.8612
   46.545    2.9665
   46.710    2.7734
   46.875    2.9314
   47.040    3.0893
   47.205    3.2298
   47.370    3.0542
   47.535    2.9665
   47.700    2.7734
   47.865    3.0367
   48.030    2.9665
   48.195    3.2122
   48.360    2.7734
   48.525    3.0367
   48.690    2.7207
   48.855    2.8260
   49.020    3.0542
   49.185    3.0718
   49.350    2.9138
   49.515    2.8260
   49.680    3.0016
   49.845    2.9314
   49.980    2.7032