File: data/PXRD/PXRD_KE-285A_Cu-Ka1_capillary-1mm_3s-deg.xyd
    1.500   38.0902
    1.635   31.2270
    1.770   24.7499
    1.905   21.2217
    2.040   17.4829
    2.175   15.7276
    2.310   13.3755
    2.445   12.3925
    2.580   11.4622
    2.715   11.2515
    2.850   10.1281
    2.985    9.7069
    3.120    9.1978
    3.255    9.4260
    3.390   10.6547
    3.525   11.8483
    3.660   15.1483
    3.795   24.3813
    3.930   13.8845
    4.065    8.6361
    4.200    7.9516
    4.335    7.4601
    4.470    7.3899
    4.605    7.6005
    4.740    7.2494
    4.875    6.8457
    5.010    6.6351
    5.145    8.1446
    5.280    8.0744
    5.415   10.8303
    5.550    9.1452
    5.685    6.7404
    5.820    6.3893
    5.955    7.3372
    6.090    7.2319
    6.225    6.7755
    6.360    6.8984
    6.495    6.8633
    6.630    7.4250
    6.765    8.0569
    6.900    6.7053
    7.035    7.0212
    7.170    6.3893
    7.305    7.3723
    7.440    6.6877
    7.575    6.9510
    7.710    7.4425
    7.845    7.1792
    7.980    7.3723
    8.115    7.1266
    8.250    6.9335
    8.385    7.7409
    8.520    7.4250
    8.655    7.6180
    8.790    7.2143
    8.925    7.2494
    9.060    7.4074
    9.195    7.3899
    9.330    7.3196
    9.465    8.2500
    9.600    9.0047
    9.735    7.6707
    9.870    7.0563
   10.005    7.3547
   10.140    7.3547
   10.275    8.8643
   10.410    7.3547
   10.545    6.8282
   10.680    7.1441
   10.815    7.8111
   10.950    7.8462
   11.085    6.8106
   11.220    7.0212
   11.355    6.8457
   11.490    7.0563
   11.625    6.9159
   11.760    7.2670
   11.895    6.6702
   12.030    6.9335
   12.165    6.1260
   12.300    6.4595
   12.435    6.3542
   12.570    6.0734
   12.705    5.9681
   12.840    5.9329
   12.975    6.3191
   13.110    6.3016
   13.245    6.4069
   13.380    6.5824
   13.515    6.3191
   13.650    6.0909
   13.785    5.8803
   13.920    5.8978
   14.055    6.3367
   14.190    6.2313
   14.325    5.7399
   14.460    6.0032
   14.595    6.1260
   14.730    5.8978
   14.865    5.8276
   15.000    6.1436
   15.135    6.1962
   15.270    5.5643
   15.405    5.8978
   15.540    5.6872
   15.675    6.2489
   15.810    5.8276
   15.945    6.1436
   16.080    5.7574
   16.215    5.7750
   16.350    5.7750
   16.485    6.3016
   16.620    6.6175
   16.755    6.1436
   16.890    5.7048
   17.025    6.1436
   17.160    6.5824
   17.295    6.2840
   17.430    6.2313
   17.565    5.5292
   17.700    5.6521
   17.835    5.6345
   17.970    5.6521
   18.105    6.3542
   18.240    5.6872
   18.375    5.7750
   18.510    6.2665
   18.645    6.2138
   18.780    5.4064
   18.915    5.9856
   19.050    5.7574
   19.185    5.4590
   19.320    6.0207
   19.455    6.3542
   19.590    6.3191
   19.725    6.2665
   19.860    6.3016
   19.995    5.5643
   20.130    6.1787
   20.265    6.2138
   20.400    6.1260
   20.535    5.8978
   20.670    5.8452
   20.805    5.8101
   20.940    5.9329
   21.075    6.1085
   21.210    5.9505
   21.345    6.3016
   21.480    5.8452
   21.615    6.0032
   21.750    6.2665
   21.885    6.1085
   22.020    6.2138
   22.155    6.5298
   22.290    6.3718
   22.425    6.6526
   22.560    6.3893
   22.695    6.0383
   22.830    6.0734
   22.965    7.2319
   23.100    6.1962
   23.235    6.2489
   23.370    5.8627
   23.505    6.8457
   23.640    6.3893
   23.775    5.8276
   23.910    6.0032
   24.045    6.0909
   24.180    6.2138
   24.315    6.3367
   24.450    5.7574
   24.585    6.0909
   24.720    6.4244
   24.855    6.0558
   24.990    6.6526
   25.125    6.2313
   25.260    6.4244
   25.395    6.0558
   25.530    5.7750
   25.665    6.0558
   25.800    5.3888
   25.935    6.3893
   26.070    5.3712
   26.205    5.7048
   26.340    5.6170
   26.475    5.8803
   26.610    5.2835
   26.745    5.6697
   26.880    5.6521
   27.015    5.8803
   27.150    5.8276
   27.285    5.8101
   27.420    5.4941
   27.555    5.6697
   27.690    5.5643
   27.825    5.3010
   27.960    5.5643
   28.095    5.6697
   28.230    5.6521
   28.365    5.8803
   28.500    5.2835
   28.635    5.7223
   28.770    5.3888
   28.905    5.8627
   29.040    5.2308
   29.175    5.4239
   29.310    5.6170
   29.445    5.2133
   29.580    5.3537
   29.715    5.4415
   29.850    5.1782
   29.985    5.4064
   30.120    5.3010
   30.255    5.4766
   30.390    5.4239
   30.525    5.2659
   30.660    5.1606
   30.795    5.5292
   30.930    5.4766
   31.065    4.7744
   31.200    5.0202
   31.335    5.5117
   31.470    5.3186
   31.605    5.3888
   31.740    4.8622
   31.875    5.2835
   32.010    4.7569
   32.145    5.4239
   32.280    5.0553
   32.415    5.2659
   32.550    4.7569
   32.685    5.4766
   32.820    5.1255
   32.955    4.5638
   33.090    5.4766
   33.225    5.7048
   33.360    4.8271
   33.495    4.7744
   33.630    4.9851
   33.765    4.9675
   33.900    5.0553
   34.035    4.6516
   34.170    5.3186
   34.305    5.5994
   34.440    4.8798
   34.575    5.1606
   34.710    4.9149
   34.845    4.8798
   34.980    5.2835
   35.115    4.8973
   35.250    4.7393
   35.385    4.7042
   35.520    4.6867
   35.655    4.4936
   35.790    4.6867
   35.925    5.1431
   36.060    4.8798
   36.195    4.7218
   36.330    4.4936
   36.465    4.7744
   36.600    4.7218
   36.735    5.0202
   36.870    4.8271
   37.005    4.3883
   37.140    4.8973
   37.275    4.8447
   37.410    4.8622
   37.545    4.7920
   37.680    4.2654
   37.815    4.8095
   37.950    5.1606
   38.085    4.7042
   38.220    4.7218
   38.355    4.8798
   38.490    5.0904
   38.625    4.8622
   38.760    4.4585
   38.895    5.0728
   39.030    5.0553
   39.165    4.6516
   39.300    4.8622
   39.435    4.6340
   39.570    4.7042
   39.705    4.2127
   39.840    4.7042
   39.975    4.6867
   39.990    4.6516