File: data/PXRD/PXRD_KE-053_Cu-Ka1_capillary-1mm_5s-deg.xyd
    1.500   29.1627
    1.635   27.9305
    1.770   26.4139
    1.905   25.0026
    2.040   23.8231
    2.175   23.3807
    2.310   22.8331
    2.445   23.4966
    2.580   23.4439
    2.715   25.3607
    2.850   27.1933
    2.985   31.0163
    3.120   35.3660
    3.255   43.3702
    3.390   55.0922
    3.525   71.3849
    3.660   99.0627
    3.795  165.8557
    3.930  335.5977
    4.065   15.8610
    4.200   12.2907
    4.335   10.7425
    4.470   10.9637
    4.605   11.1743
    4.740   11.4692
    4.875   12.3644
    5.010   14.5234
    5.145   17.0827
    5.280   23.6756
    5.415   38.2728
    5.550   73.2385
    5.685    9.0679
    5.820    7.9094
    5.955    8.5940
    6.090    8.2675
    6.225    8.7520
    6.360    9.0153
    6.495   10.4687
    6.630   12.8173
    6.765   23.9073
    6.900    7.8778
    7.035    7.3196
    7.170    7.5724
    7.305    7.9410
    7.440    8.0358
    7.575   10.1422
    7.710   13.9231
    7.845   22.6856
    7.980    8.2149
    8.115    6.5087
    8.250    6.9300
    8.385    6.8984
    8.520    7.3091
    8.655    7.4776
    8.790    8.2043
    8.925    6.8668
    9.060    7.7830
    9.195    8.7730
    9.330   10.9953
    9.465   17.3986
    9.600   42.3275
    9.735    7.3828
    9.870    7.2459
   10.005    7.2565
   10.140    8.4044
   10.275   11.7641
   10.410   12.7751
   10.545    6.4455
   10.680    6.6983
   10.815    7.7514
   10.950    9.4681
   11.085   17.2828
   11.220    6.8457
   11.355    6.3507
   11.490    7.7093
   11.625   10.0263
   11.760   18.0411
   11.895    6.8562
   12.030    6.3086
   12.165    6.6772
   12.300    7.0248
   12.435    7.6567
   12.570    6.4034
   12.705    6.4244
   12.840    7.7620
   12.975   13.2280
   13.110    6.8878
   13.245    6.4350
   13.380    6.5929
   13.515    8.6361
   13.650    7.2670
   13.785    6.3086
   13.920    7.3828
   14.055    9.1206
   14.190   10.0579
   14.325    6.2033
   14.460    6.0874
   14.595    6.1401
   14.730    6.3928
   14.865    6.0558
   15.000    6.3612
   15.135    7.2459
   15.270    6.0979
   15.405    6.5929
   15.540    5.9610
   15.675    6.6035
   15.810    6.3086
   15.945    6.4139
   16.080    6.5929
   16.215    7.4144
   16.350    5.8978
   16.485    6.4876
   16.620    7.4882
   16.755    6.4560
   16.890    6.6877
   17.025    8.6888
   17.160   10.0685
   17.295    6.0664
   17.430    6.8141
   17.565    7.2565
   17.700    6.3086
   17.835    6.3612
   17.970    7.0985
   18.105    6.0348
   18.240    6.4244
   18.375    7.2880
   18.510    6.3191
   18.645    6.1927
   18.780    6.6561
   18.915    6.3928
   19.050    6.4876
   19.185    6.0453
   19.320    6.0979
   19.455    6.5929
   19.590    7.5092
   19.725    6.7720
   19.860    6.5508
   19.995    6.4771
   20.130    6.3612
   20.265    6.8878
   20.400   10.0474
   20.535    7.0669
   20.670    6.4455
   20.805    6.4455
   20.940    6.1611
   21.075    6.0032
   21.210    6.5087
   21.345    6.1401
   21.480    6.2770
   21.615    6.4982
   21.750    6.3823
   21.885    7.9094
   22.020    6.5192
   22.155    6.5403
   22.290    7.3934
   22.425    6.8878
   22.560   10.0053
   22.695    8.6151
   22.830    7.0669
   22.965   11.2902
   23.100    6.7720
   23.235    7.4355
   23.370    7.1827
   23.505    6.5298
   23.640    6.4455
   23.775    6.3086
   23.910    7.1511
   24.045    7.1301
   24.180    6.0032
   24.315    6.4034
   24.450    6.1401
   24.585    6.4455
   24.720    6.5192
   24.855    6.5613
   24.990    6.5613
   25.125    6.2770
   25.260    7.1617
   25.395    6.4034
   25.530    6.1717
   25.665    6.4244
   25.800    8.3518
   25.935    8.5308
   26.070    6.1401
   26.205    6.6983
   26.340    5.9294
   26.475    7.4566
   26.610    6.1927
   26.745    6.1190
   26.880    6.1085
   27.015    7.0037
   27.150    7.0353
   27.285    5.7820
   27.420    5.6767
   27.555    6.0558
   27.690    6.8246
   27.825    6.3823
   27.960    6.5298
   28.095    6.5403
   28.230    7.6672
   28.365    6.2243
   28.500    6.8036
   28.635    6.2559
   28.770    5.9084
   28.905    5.9610
   29.040    6.3507
   29.175    5.8136
   29.310    6.9616
   29.445    6.0032
   29.580    5.9821
   29.715    5.7293
   29.850    6.1085
   29.985    5.8241
   30.120    6.1295
   30.255    5.7820
   30.390    6.1295
   30.525    5.6451
   30.660    6.7193
   30.795    6.0348
   30.930    6.0348
   31.065    5.3081
   31.200    5.9084
   31.335    5.9716
   31.470    6.3086
   31.605    5.9400
   31.740    5.8241
   31.875    6.0769
   32.010    5.5082
   32.145    5.8136
   32.280    5.4976
   32.415    5.6135
   32.550    5.4134
   32.685    5.7715
   32.820    5.2554
   32.955    5.7609
   33.090    5.5503
   33.225    5.4344
   33.360    5.1606
   33.495    5.0342
   33.630    5.4239
   33.765    5.1501
   33.900    5.8557
   34.035    5.4555
   34.170    5.7715
   34.305    5.4555
   34.440    5.2659
   34.575    5.0869
   34.710    5.0974
   34.845    5.5503
   34.980    5.0132
   35.115    4.9078
   35.250    4.9394
   35.385    5.1501
   35.520    4.8447
   35.655    5.0448
   35.790    5.6345
   35.925    5.2765
   36.060    5.3712
   36.195    5.3397
   36.330    5.0974
   36.465    5.1290
   36.600    4.8657
   36.735    4.9921
   36.870    4.7709
   37.005    4.8131
   37.140    5.4871
   37.275    5.0448
   37.410    5.3186
   37.545    5.0553
   37.680    5.0132
   37.815    5.0237
   37.950    4.7604
   38.085    5.0658
   38.220    4.8447
   38.355    4.5498
   38.490    4.9394
   38.625    4.8341
   38.760    4.8552
   38.895    4.9289
   39.030    4.7815
   39.165    4.8552
   39.300    4.6761
   39.435    4.8236
   39.570    4.8657
   39.705    4.9184
   39.840    4.8447
   39.975    4.8763
   39.990    4.8447