File: data/PXRD/PXRD_KE-064_Cu-Ka1_film-3mm_5s-deg.xyd
    1.500    9.8789
    1.635    9.3418
    1.770    8.3096
    1.905    7.9937
    2.040    7.1617
    2.175    7.2986
    2.310    6.6140
    2.445    6.7404
    2.580    5.8452
    2.715    5.8768
    2.850    5.8241
    2.985    5.8031
    3.120    6.3402
    3.255    5.7399
    3.390    5.9821
    3.525    5.6661
    3.660    6.9405
    3.795    7.8989
    3.930   12.2275
    4.065    5.6240
    4.200    6.0348
    4.335    5.5714
    4.470    5.6451
    4.605    5.9505
    4.740    5.5924
    4.875    6.4139
    5.010    6.0664
    5.145    6.5192
    5.280    7.2775
    5.415    8.2043
    5.550   10.0474
    5.685    7.6567
    5.820    7.0669
    5.955    6.4139
    6.090    6.0242
    6.225    5.5292
    6.360    5.4555
    6.495    5.5187
    6.630    4.8868
    6.765    6.0453
    6.900    5.1606
    7.035    4.4655
    7.170    4.4550
    7.305    4.5603
    7.440    4.2654
    7.575    4.3391
    7.710    4.2549
    7.845    4.3602
    7.980    4.0653
    8.115    3.6546
    8.250    3.7388
    8.385    3.4123
    8.520    3.5282
    8.655    3.5071
    8.790    3.5492
    8.925    3.5808
    9.060    3.5282
    9.195    3.3491
    9.330    3.4229
    9.465    3.7599
    9.600    5.0658
    9.735    3.3491
    9.870    3.2965
   10.005    3.4755
   10.140    3.4755
   10.275    3.6967
   10.410    3.6335
   10.545    3.6335
   10.680    3.6967
   10.815    3.8125
   10.950    3.7283
   11.085    3.9810
   11.220    3.8231
   11.355    3.8968
   11.490    3.7388
   11.625    3.7388
   11.760    3.8863
   11.895    3.6124
   12.030    3.4544
   12.165    3.4123
   12.300    3.4650
   12.435    3.3281
   12.570    3.2122
   12.705    3.3597
   12.840    3.3702
   12.975    3.5176
   13.110    3.3491
   13.245    3.3807
   13.380    3.1069
   13.515    3.3807
   13.650    3.2754
   13.785    3.6862
   13.920    3.3913
   14.055    3.9600
   14.190    3.6651
   14.325    3.8863
   14.460    3.8020
   14.595    4.0548
   14.730    3.5387
   14.865    3.3491
   15.000    3.5176
   15.135    3.6019
   15.270    3.1280
   15.405    3.2017
   15.540    3.4229
   15.675    3.3070
   15.810    3.1912
   15.945    3.5282
   16.080    3.4229
   16.215    3.2017
   16.350    3.1490
   16.485    3.3281
   16.620    3.4860
   16.755    3.0542
   16.890    3.1490
   17.025    3.1490
   17.160    3.6335
   17.295    3.4860
   17.430    3.1280
   17.565    3.1701
   17.700    3.2227
   17.835    3.4229
   17.970    2.9595
   18.105    3.1490
   18.240    3.0753
   18.375    3.3807
   18.510    2.9279
   18.645    3.0121
   18.780    3.2649
   18.915    3.1912
   19.050    5.6451
   19.185    3.0753
   19.320    3.1490
   19.455    3.2017
   19.590    2.8015
   19.725    2.8120
   19.860    3.1174
   19.995    2.8541
   20.130    3.0964
   20.265    3.0753
   20.400    2.9384
   20.535    2.9805
   20.670    3.0648
   20.805    2.9068
   20.940    2.8331
   21.075    2.7278
   21.210    2.6646
   21.345    2.7699
   21.480    2.8647
   21.615    2.9805
   21.750    2.7488
   21.885    2.6646
   22.020    2.9068
   22.155    2.8647
   22.290    2.9173
   22.425    2.6119
   22.560    2.3381
   22.695    2.8120
   22.830    2.4961
   22.965    2.6435
   23.100    3.0648
   23.235    2.7278
   23.370    2.6856
   23.505    2.4013
   23.640    2.7172
   23.775    2.3381
   23.910    2.0958
   24.045    2.6330
   24.180    2.4013
   24.315    2.4434
   24.450    2.4434
   24.585    2.3907
   24.720    2.2749
   24.855    2.4329
   24.990    2.3591
   25.125    2.3591
   25.260    2.3591
   25.395    2.2854
   25.530    2.0221
   25.665    2.2854
   25.800    2.4223
   25.935    2.4855
   26.070    2.3381
   26.205    2.3170
   26.340    2.1380
   26.475    2.1274
   26.610    2.2643
   26.745    1.9800
   26.880    2.2959
   27.015    2.3591
   27.150    2.1274
   27.285    2.0326
   27.420    2.0432
   27.555    2.1590
   27.690    2.0853
   27.825    1.8115
   27.960    2.2117
   28.095    2.0326
   28.230    1.8431
   28.365    1.9168
   28.500    1.8536
   28.635    1.9800
   28.770    1.9063
   28.905    2.2012
   29.040    2.7699
   29.175    2.0748
   29.310    1.9589
   29.445    1.8431
   29.580    1.8431
   29.715    1.6324
   29.850    1.6324
   29.985    1.7378
   30.120    1.8220
   30.255    1.4745
   30.390    1.7167
   30.525    1.5587
   30.660    1.6430
   30.795    1.5587
   30.930    1.7167
   31.065    1.4323
   31.200    1.3375
   31.335    1.4218
   31.470    1.5271
   31.605    1.6535
   31.740    1.5166
   31.875    1.3270
   32.010    1.6535
   32.145    4.8763
   32.280    1.5166
   32.415    1.4745
   32.550    1.3270
   32.685    1.4639
   32.820    1.2112
   32.955    1.3270
   33.090    1.4534
   33.225    1.2638
   33.360    1.4007
   33.495    1.4534
   33.630    1.3797
   33.765    1.3691
   33.900    1.9800
   34.035    1.3270
   34.170    1.1796
   34.305    1.3060
   34.440    1.2217
   34.575    1.3586
   34.710    1.2744
   34.845    1.3691
   34.980    1.2849
   35.115    1.2638
   35.250    1.3797
   35.385    1.1690
   35.520    1.2638
   35.655    1.3902
   35.790    1.3165
   35.925    1.2322
   36.060    1.2217
   36.195    1.3060
   36.330    1.4218
   36.465    1.3375
   36.600    1.2744
   36.735    1.2006
   36.870    1.2322
   37.005    1.2638
   37.140    1.3165
   37.275    1.2428
   37.410    1.1480
   37.545    1.2217
   37.680    1.2744
   37.815    1.0848
   37.950    1.1796
   38.085    1.2428
   38.220    1.1480
   38.355    1.3481
   38.490    1.3165
   38.625    2.3170
   38.760    1.1058
   38.895    1.0742
   39.030    1.1058
   39.165    1.1901
   39.300    1.1585
   39.435    1.0637
   39.570    1.1374
   39.705    1.2217
   39.840    1.2744
   39.975    1.1269
   39.990    1.1269