File: data/PXRD/PXRD_KE-035_Cu-Ka1_capillary-0.5mm_5s-deg.xyd
    1.500    2.6540
    1.620    2.6330
    1.740    2.7383
    1.860    3.0964
    1.980    3.1174
    2.100    3.2754
    2.220    3.4860
    2.340    3.5176
    2.460    3.7809
    2.580    3.4860
    2.700    3.6756
    2.820    4.0126
    2.940    3.9284
    3.060    4.4971
    3.180    4.6972
    3.300    5.4239
    3.420    5.5819
    3.540    5.9084
    3.660    5.4134
    3.780    4.8868
    3.900    4.7920
    4.020    3.9494
    4.140    3.7283
    4.260    3.6546
    4.380    3.5598
    4.500    3.3070
    4.620    3.2017
    4.740    3.5598
    4.860    3.5282
    4.980    3.2438
    5.100    3.2438
    5.220    3.0858
    5.340    3.1912
    5.460    3.6862
    5.580    3.1806
    5.700    3.2333
    5.820    3.3070
    5.940    3.2754
    6.060    3.5282
    6.180    3.0542
    6.300    3.5176
    6.420    3.2859
    6.540    3.3807
    6.660    3.4544
    6.780    3.3702
    6.900    3.5282
    7.020    3.8231
    7.140    3.2333
    7.260    3.2859
    7.380    3.4018
    7.500    3.1596
    7.620    3.4229
    7.740    3.4439
    7.860    3.5176
    7.980    3.5598
    8.100    3.2543
    8.220    3.3281
    8.340    3.1912
    8.460    3.2227
    8.580    3.1174
    8.700    3.2438
    8.820    3.2227
    8.940    3.2017
    9.060    3.0016
    9.180    3.2859
    9.300    3.4650
    9.420    3.0858
    9.540    3.1385
    9.660    3.1806
    9.780    3.2017
    9.900    3.2333
   10.020    3.3597
   10.140    3.5703
   10.260    3.0121
   10.380    3.1490
   10.500    2.9595
   10.620    3.0648
   10.740    3.1806
   10.860    3.0858
   10.980    3.0437
   11.100    3.1701
   11.220    2.9489
   11.340    3.5492
   11.460    2.8436
   11.580    3.4018
   11.700    3.0753
   11.820    2.9068
   11.940    3.0016
   12.060    2.9910
   12.180    2.7067
   12.300    3.0332
   12.420    2.8752
   12.540    3.1701
   12.660    2.9489
   12.780    3.0226
   12.900    3.1806
   13.020    3.0016
   13.140    3.0542
   13.260    3.0332
   13.380    2.9173
   13.500    2.8015
   13.620    2.9384
   13.740    2.7593
   13.860    3.2122
   13.980    2.9700
   14.100    2.8963
   14.220    2.6119
   14.340    3.0542
   14.460    3.2122
   14.580    2.9279
   14.700    2.6540
   14.820    2.8647
   14.940    3.0332
   15.060    3.0964
   15.180    2.8015
   15.300    2.9805
   15.420    2.8647
   15.540    2.9173
   15.660    3.0437
   15.780    2.8331
   15.900    2.8225
   16.020    2.7699
   16.140    2.9595
   16.260    2.7383
   16.380    2.7804
   16.500    2.6646
   16.620    3.0437
   16.740    3.1701
   16.860    2.9068
   16.980    3.1385
   17.100    2.7067
   17.220    2.9279
   17.340    2.7278
   17.460    2.7804
   17.580    2.8120
   17.700    2.7804
   17.820    2.8752
   17.940    2.8331
   18.060    3.0437
   18.180    3.0542
   18.300    3.0858
   18.420    2.8331
   18.540    2.8647
   18.660    3.0648
   18.780    2.8857
   18.900    3.0648
   19.020    3.0542
   19.140    2.6435
   19.260    2.9384
   19.380    3.2017
   19.500    3.3070
   19.620    2.9805
   19.740    3.0121
   19.860    3.0332
   19.980    2.9173
   20.100    3.3175
   20.220    3.0648
   20.340    2.7699
   20.460    2.9384
   20.580    2.8752
   20.700    2.9910
   20.820    3.0121
   20.940    2.9489
   21.060    2.9595
   21.180    2.9805
   21.300    2.8857
   21.420    3.3386
   21.540    3.0753
   21.660    3.3807
   21.780    3.0648
   21.900    3.0226
   22.020    2.7067
   22.140    2.9489
   22.260    3.0332
   22.380    2.7067
   22.500    3.0437
   22.620    3.0753
   22.740    3.2649
   22.860    3.2333
   22.980    3.0964
   23.100    3.0016
   23.220    3.1806
   23.340    2.7593
   23.460    3.3175
   23.580    2.8541
   23.700    3.1174
   23.820    2.9805
   23.940    2.9700
   24.060    2.8857
   24.180    2.9700
   24.300    2.9068
   24.420    2.8541
   24.540    2.9910
   24.660    2.9489
   24.780    2.7699
   24.900    2.8015
   25.020    2.8225
   25.140    3.0121
   25.260    3.0753
   25.380    2.8120
   25.500    3.0226
   25.620    2.6856
   25.740    2.7804
   25.860    2.8331
   25.980    2.7699
   26.100    2.7699
   26.220    2.9384
   26.340    2.4855
   26.460    2.7909
   26.580    2.5592
   26.700    2.5698
   26.820    2.6014
   26.940    2.6751
   27.060    2.7488
   27.180    2.8752
   27.300    2.4223
   27.420    2.6856
   27.540    2.5592
   27.660    2.5698
   27.780    2.7593
   27.900    2.7067
   28.020    2.4750
   28.140    2.5487
   28.260    2.7909
   28.380    2.7488
   28.500    2.4329
   28.620    2.4750
   28.740    2.4750
   28.860    2.2643
   28.980    2.3486
   29.100    2.4434
   29.220    2.6540
   29.340    2.1696
   29.460    2.2854
   29.580    2.5592
   29.700    2.5066
   29.820    2.4013
   29.940    2.3381
   30.060    2.1696
   30.180    2.3802
   30.300    2.5276
   30.420    2.3907
   30.540    2.5066
   30.660    2.1380
   30.780    1.9168
   30.900    2.6330
   31.020    2.1696
   31.140    2.0642
   31.260    2.2538
   31.380    2.3065
   31.500    2.4118
   31.620    2.2328
   31.740    2.3275
   31.860    2.0958
   31.980    2.0326
   32.100    1.7904
   32.220    1.8536
   32.340    1.9168
   32.460    2.1380
   32.580    1.8957
   32.700    1.9168
   32.820    2.0642
   32.940    1.8431
   33.060    2.1696
   33.180    1.8220
   33.300    1.8536
   33.420    1.9168
   33.540    1.9695
   33.660    1.7904
   33.780    1.9379
   33.900    1.7694
   34.020    1.8536
   34.140    1.7483
   34.260    1.7694
   34.380    1.7799
   34.500    1.7483
   34.620    1.5482
   34.740    1.5798
   34.860    1.6746
   34.980    1.6746
   35.100    1.7062
   35.220    1.6535
   35.340    1.6324
   35.430    1.6535