File: data/PXRD/PXRD_KE-275_Cu-Ka1_capillary-1mm_60s-deg.xyd
    1.500   16.3639
    1.635   14.5585
    1.770   12.9586
    1.905   11.6526
    2.040   10.6863
    2.175    9.7955
    2.310    9.2426
    2.445    8.6958
    2.580    8.2684
    2.715    8.0244
    2.850    8.3930
    2.985    9.3567
    3.120   12.1274
    3.255   17.5882
    3.390   28.7932
    3.525   52.2995
    3.660  114.9122
    3.795  215.5011
    3.930    8.3693
    4.065    6.1331
    4.200    5.6512
    4.335    5.3467
    4.470    5.2273
    4.605    5.1431
    4.740    5.2730
    4.875    5.6890
    5.010    7.0651
    5.145   10.9303
    5.280   24.6761
    5.415   17.6180
    5.550    4.9816
    5.685    4.7156
    5.820    4.5840
    5.955    4.5243
    6.090    4.5656
    6.225    4.8332
    6.360    5.8215
    6.495    9.6147
    6.630    9.0969
    6.765    4.4497
    6.900    4.4128
    7.035    4.2364
    7.170    4.3400
    7.305    4.4787
    7.440    5.4283
    7.575   10.9101
    7.710    4.3777
    7.845    4.1531
    7.980    4.1689
    8.115    4.0793
    8.250    4.2601
    8.385    5.1159
    8.520    9.1276
    8.655    4.0697
    8.790    3.9100
    8.925    4.1188
    9.060    4.1566
    9.195    5.5582
    9.330   14.1022
    9.465    4.2136
    9.600    4.0451
    9.735    3.8511
    9.870    4.3400
   10.005    7.7514
   10.140    8.6528
   10.275    3.8792
   10.410    3.8204
   10.545    3.8547
   10.680    5.1580
   10.815    9.0460
   10.950    3.7757
   11.085    3.8573
   11.220    3.7888
   11.355    4.7472
   11.490    6.3516
   11.625    3.6616
   11.760    3.6238
   11.895    3.8485
   12.030    5.4336
   12.165    3.8590
   12.300    3.6212
   12.435    3.6203
   12.570    4.4778
   12.705    6.2445
   12.840    3.6115
   12.975    3.5861
   13.110    3.7774
   13.245    4.9763
   13.380    3.4781
   13.515    3.6458
   13.650    4.3014
   13.785    9.4550
   13.920    3.6905
   14.055    3.5273
   14.190    3.5264
   14.325    3.5501
   14.460    3.5106
   14.595    3.5598
   14.730    3.8555
   14.865    4.3400
   15.000    3.5598
   15.135    3.5045
   15.270    3.5580
   15.405    3.5773
   15.540    3.5343
   15.675    3.7643
   15.810    5.1474
   15.945    3.4913
   16.080    3.5624
   16.215    4.5559
   16.350    3.5861
   16.485    3.6317
   16.620    4.1039
   16.755    4.3892
   16.890    3.5282
   17.025    3.7037
   17.160    4.6358
   17.295    3.5492
   17.430    3.5782
   17.565    4.0091
   17.700    3.5580
   17.835    3.6897
   17.970    4.1566
   18.105    3.7529
   18.240    3.5993
   18.375    4.2812
   18.510    3.5659
   18.645    3.5887
   18.780    3.6765
   18.915    3.5545
   19.050    3.6467
   19.185    4.3479
   19.320    3.6440
   19.455    3.5650
   19.590    3.6914
   19.725    3.6423
   19.860    4.3049
   19.995    5.3195
   20.130    3.7098
   20.265    3.7730
   20.400    3.7458
   20.535    3.7028
   20.670    4.3786
   20.805    3.6844
   20.940    3.6677
   21.075    3.6317
   21.210    3.7572
   21.345    4.2645
   21.480    3.9179
   21.615    3.6967
   21.750    3.9293
   21.885    3.8336
   22.020    4.7297
   22.155    4.7701
   22.290    3.8652
   22.425    5.6679
   22.560    3.7897
   22.695    3.7055
   22.830    3.6835
   22.965    3.6756
   23.100    3.9003
   23.235    3.7362
   23.370    4.8991
   23.505    4.1127
   23.640    3.7283
   23.775    3.7458
   23.910    3.6054
   24.045    3.7976
   24.180    3.5554
   24.315    3.7695
   24.450    3.6668
   24.585    3.7213
   24.720    3.8038
   24.855    3.6361
   24.990    4.0846
   25.125    3.6107
   25.260    5.4687
   25.395    3.7827
   25.530    3.6879
   25.665    3.5782
   25.800    3.9345
   25.935    3.9846
   26.070    3.5484
   26.205    3.4966
   26.340    3.5940
   26.475    3.8582
   26.610    3.5185
   26.745    3.4308
   26.880    3.3641
   27.015    3.8196
   27.150    3.3667
   27.285    3.5659
   27.420    3.4817
   27.555    3.9652
   27.690    3.4360
   27.825    3.6256
   27.960    3.5045
   28.095    3.3939
   28.230    3.4229
   28.365    3.5589
   28.500    3.3702
   28.635    4.2873
   28.770    3.4983
   28.905    3.3149
   29.040    3.2631
   29.175    3.6809
   29.310    3.3763
   29.445    3.5378
   29.580    3.3447
   29.715    3.2456
   29.850    3.2842
   29.985    3.3500
   30.120    3.1692
   30.255    3.3246
   30.390    3.2043
   30.525    3.1815
   30.660    3.2543
   30.795    3.1683
   30.930    3.1209
   31.065    3.1060
   31.200    3.2105
   31.335    3.1543
   31.470    3.1350
   31.605    3.1201
   31.740    3.2087
   31.875    3.0674
   32.010    3.0753
   32.145    3.1973
   32.280    3.0990
   32.415    3.0025
   32.550    2.9340
   32.685    2.9358
   32.820    2.8971
   32.955    2.9200
   33.090    3.0235
   33.225    3.1078
   33.360    2.8348
   33.495    2.8743
   33.630    2.8743
   33.765    2.8717
   33.900    2.9358
   34.035    2.8919
   34.170    2.8015
   34.305    2.7427
   34.440    2.7734
   34.575    2.7708
   34.710    2.8796
   34.845    2.7848
   34.980    2.7023
   35.115    2.7655
   35.250    2.6918
   35.385    2.7330
   35.520    2.7032
   35.655    2.6110
   35.790    2.6979
   35.925    2.6900
   36.060    2.5952
   36.195    2.6804
   36.330    2.6865
   36.465    2.5742
   36.600    2.5970
   36.735    2.6163
   36.870    2.5487
   37.005    2.5707
   37.140    2.6979
   37.275    2.6014
   37.410    2.5566
   37.545    2.5873
   37.680    2.5276
   37.815    2.4820
   37.950    2.4381
   38.085    2.4767
   38.220    2.4627
   38.355    2.5636
   38.490    2.5698
   38.625    2.4688
   38.760    2.5083
   38.895    2.5083
   39.030    2.4346
   39.165    2.4232
   39.300    2.4609
   39.435    2.4776
   39.570    2.6066
   39.705    2.6453
   39.840    2.4267
   39.975    2.4083
   39.990    2.4495