File: data/PXRD/PXRD_KE-065_Cu-Ka1_film-3mm_5s-deg.xyd
    1.500   12.0590
    1.635   11.7430
    1.770   10.9426
    1.905   10.6793
    2.040    9.6367
    2.175    9.2154
    2.310    8.9942
    2.445    8.5940
    2.580    8.6677
    2.715    8.1411
    2.850    8.4044
    2.985   10.0158
    3.120   11.3639
    3.255   15.2817
    3.390   24.9289
    3.525   32.3644
    3.660   13.7757
    3.795   12.0590
    3.930   14.3444
    4.065   17.4513
    4.200   15.9874
    4.335   12.8067
    4.470    9.4155
    4.605    7.9937
    4.740    7.0879
    4.875    7.0879
    5.010    7.3407
    5.145    7.4460
    5.280    8.0674
    5.415    7.9831
    5.550    8.3834
    5.685    8.1727
    5.820    8.1833
    5.955    7.0142
    6.090    6.6772
    6.225    6.1295
    6.360    6.3823
    6.495    6.0242
    6.630    6.0769
    6.765    6.1611
    6.900    7.5408
    7.035    8.1095
    7.170    6.3507
    7.305    5.3081
    7.440    5.4871
    7.575    5.6767
    7.710    5.3712
    7.845    4.9710
    7.980    5.3923
    8.115    5.2133
    8.250    5.3923
    8.385    5.5292
    8.520    5.0974
    8.655    4.9500
    8.790    4.6130
    8.925    4.9184
    9.060    4.5076
    9.195    4.4128
    9.330    4.3286
    9.465    4.2970
    9.600    4.0548
    9.735    4.4866
    9.870    4.1917
   10.005    4.2022
   10.140    4.1074
   10.275    4.3286
   10.410    4.6867
   10.545    4.5814
   10.680    4.3391
   10.815    4.6340
   10.950    4.8025
   11.085    4.1706
   11.220    4.2549
   11.355    4.3918
   11.490    4.4339
   11.625    4.2759
   11.760    4.3602
   11.895    4.0442
   12.030    4.1601
   12.165    4.5603
   12.300    4.2443
   12.435    4.3497
   12.570    3.9600
   12.705    4.4128
   12.840    4.3391
   12.975    4.1601
   13.110    4.0864
   13.245    4.2338
   13.380    3.9810
   13.515    4.0337
   13.650    4.2865
   13.785    4.1706
   13.920    4.5498
   14.055    4.0758
   14.190    4.3286
   14.325    4.4866
   14.460    4.3813
   14.595    4.4339
   14.730    4.4971
   14.865    4.0021
   15.000    4.1390
   15.135    4.3918
   15.270    4.3075
   15.405    3.6862
   15.540    3.9494
   15.675    4.1917
   15.810    3.8863
   15.945    3.8968
   16.080    3.9284
   16.215    4.3707
   16.350    4.1496
   16.485    3.7915
   16.620    4.0758
   16.755    4.0126
   16.890    3.9916
   17.025    3.8547
   17.160    4.0442
   17.295    4.0548
   17.430    4.1285
   17.565    3.9705
   17.700    3.9073
   17.835    4.1180
   17.970    3.9073
   18.105    4.0337
   18.240    3.9810
   18.375    3.8336
   18.510    4.0653
   18.645    4.0969
   18.780    4.0969
   18.915    3.8757
   19.050    3.7915
   19.185    3.7388
   19.320    3.9705
   19.455    3.6546
   19.590    3.7809
   19.725    4.0442
   19.860    4.0126
   19.995    3.7493
   20.130    3.8652
   20.265    3.6546
   20.400    4.1496
   20.535    3.9494
   20.670    3.7283
   20.805    3.8020
   20.940    3.7072
   21.075    3.6967
   21.210    4.0232
   21.345    3.5598
   21.480    3.6335
   21.615    3.5071
   21.750    3.8863
   21.885    3.9494
   22.020    3.7599
   22.155    3.6019
   22.290    3.5598
   22.425    3.4123
   22.560    3.5071
   22.695    3.4755
   22.830    3.2754
   22.965    3.3281
   23.100    3.3702
   23.235    3.4229
   23.370    3.3491
   23.505    3.2859
   23.640    3.2754
   23.775    3.2017
   23.910    3.5703
   24.045    3.2438
   24.180    3.1385
   24.315    3.2543
   24.450    3.1701
   24.585    3.3281
   24.720    3.3913
   24.855    3.2754
   24.990    3.1912
   25.125    2.8857
   25.260    3.2649
   25.395    3.0964
   25.530    3.0753
   25.665    2.9489
   25.800    3.1069
   25.935    3.3491
   26.070    2.9384
   26.205    2.8963
   26.340    2.8752
   26.475    2.7593
   26.610    2.6435
   26.745    2.8331
   26.880    3.0332
   27.015    2.8857
   27.150    2.5908
   27.285    3.0753
   27.420    2.6119
   27.555    3.0332
   27.690    2.6330
   27.825    2.5908
   27.960    2.7488
   28.095    2.8752
   28.230    2.8963
   28.365    3.0542
   28.500    2.6224
   28.635    2.5171
   28.770    2.7488
   28.905    2.3907
   29.040    2.6224
   29.175    3.0121
   29.310    2.4539
   29.445    2.5908
   29.580    2.4223
   29.715    2.2328
   29.850    2.3697
   29.985    2.6119
   30.120    2.3381
   30.255    2.3065
   30.390    2.4118
   30.525    2.5066
   30.660    2.4118
   30.795    2.4645
   30.930    2.2012
   31.065    2.1169
   31.200    2.3591
   31.335    2.2538
   31.470    2.1801
   31.605    2.2117
   31.740    2.3065
   31.875    2.4013
   32.010    2.2117
   32.145    2.4223
   32.280    2.1801
   32.415    2.3065
   32.550    2.1696
   32.685    1.9484
   32.820    2.2538
   32.955    1.9589
   33.090    2.0748
   33.225    2.0537
   33.360    2.2328
   33.495    1.8641
   33.630    2.0116
   33.765    2.0011
   33.900    1.8641
   34.035    2.0958
   34.170    2.3802
   34.305    2.1064
   34.440    2.1274
   34.575    2.0853
   34.710    1.9589
   34.845    2.0432
   34.980    2.0326
   35.115    2.1485
   35.250    1.9063
   35.385    1.9379
   35.520    1.7694
   35.655    2.0116
   35.790    2.0326
   35.925    2.0958
   36.060    1.8115
   36.195    1.8957
   36.330    1.9379
   36.465    2.0011
   36.600    1.8220
   36.735    1.9379
   36.870    1.8641
   37.005    1.8115
   37.140    1.9273
   37.275    1.8009
   37.410    1.8957
   37.545    1.8115
   37.680    1.8325
   37.815    1.9063
   37.950    2.0432
   38.085    1.7167
   38.220    1.9063
   38.355    1.9168
   38.490    1.8009
   38.625    1.9905
   38.760    2.0011
   38.895    1.7272
   39.030    2.0958
   39.165    1.8747
   39.300    1.5482
   39.435    1.8957
   39.570    1.8536
   39.705    1.7588
   39.840    1.8641
   39.975    1.7588
   39.990    1.7062