File: data/PXRD/PXRD_KE-081-1-2_Cu-Ka1_capillary-1mm_5s-deg.xyd
    1.500   26.9194
    1.635   21.3060
    1.770   17.5882
    1.905   14.2391
    2.040   12.3117
    2.175   11.3639
    2.310    9.2891
    2.445    8.9731
    2.580    8.1411
    2.715    7.9305
    2.850    7.4987
    2.985    7.3512
    3.120    7.1195
    3.255    6.8036
    3.390    6.7825
    3.525    6.8457
    3.660    6.2559
    3.795    6.5508
    3.930    6.8562
    4.065    6.3402
    4.200    6.1401
    4.335    6.2875
    4.470    6.2033
    4.605    5.9926
    4.740    6.2770
    4.875    6.2454
    5.010    6.0664
    5.145    5.6556
    5.280    6.1295
    5.415    6.0032
    5.550    5.5398
    5.685    6.0664
    5.820    5.7715
    5.955    6.1611
    6.090    6.0242
    6.225    6.1401
    6.360    5.8662
    6.495    5.9610
    6.630    6.2770
    6.765    6.7193
    6.900    6.1085
    7.035    5.9926
    7.170    6.2875
    7.305    6.2454
    7.440    5.9926
    7.575    6.0032
    7.710    6.4455
    7.845    6.2138
    7.980    6.5087
    8.115    6.0558
    8.250    6.2559
    8.385    6.3718
    8.520    6.5508
    8.655    6.3191
    8.790    6.3402
    8.925    6.2349
    9.060    6.4244
    9.195    6.6140
    9.330    6.4034
    9.465    6.6140
    9.600    6.8141
    9.735    6.6245
    9.870    6.6877
   10.005    6.8246
   10.140    6.4982
   10.275    7.0458
   10.410    6.7930
   10.545    6.7404
   10.680    6.2243
   10.815    6.1822
   10.950    6.4244
   11.085    6.5087
   11.220    5.8557
   11.355    6.4350
   11.490    6.3296
   11.625    6.0558
   11.760    6.0769
   11.895    6.0664
   12.030    6.0032
   12.165    5.6661
   12.300    5.7609
   12.435    5.6977
   12.570    5.6556
   12.705    5.5608
   12.840    5.7399
   12.975    5.4766
   13.110    5.6977
   13.245    5.6135
   13.380    5.4871
   13.515    5.8031
   13.650    5.4976
   13.785    5.4871
   13.920    5.6451
   14.055    5.7504
   14.190    5.1290
   14.325    5.3502
   14.460    5.6135
   14.595    5.5292
   14.730    5.5924
   14.865    5.6977
   15.000    5.8768
   15.135    5.3081
   15.270    5.2765
   15.405    5.6451
   15.540    5.6977
   15.675    5.6977
   15.810    5.6135
   15.945    5.6240
   16.080    5.7083
   16.215    5.4555
   16.350    5.7083
   16.485    5.5924
   16.620    5.5714
   16.755    6.1295
   16.890    5.2554
   17.025    5.5292
   17.160    5.5292
   17.295    5.6240
   17.430    5.7925
   17.565    5.6661
   17.700    5.2343
   17.835    5.6029
   17.970    5.6135
   18.105    5.8978
   18.240    5.7504
   18.375    5.4766
   18.510    6.1611
   18.645    5.3712
   18.780    5.7083
   18.915    6.3402
   19.050    6.1401
   19.185    5.8978
   19.320    5.6029
   19.455    5.8873
   19.590    6.0348
   19.725    6.0348
   19.860    5.9505
   19.995    5.9400
   20.130    5.8978
   20.265    6.1190
   20.400    6.0137
   20.535    6.0874
   20.670    5.8452
   20.805    6.0979
   20.940    5.9400
   21.075    6.1717
   21.210    6.1295
   21.345    5.9926
   21.480    6.1611
   21.615    5.9505
   21.750    6.2665
   21.885    6.3296
   22.020    6.0874
   22.155    6.1190
   22.290    6.2665
   22.425    6.3612
   22.560    6.5613
   22.695    6.2138
   22.830    6.4034
   22.965    6.5087
   23.100    6.5298
   23.235    6.6456
   23.370    6.0453
   23.505    6.1401
   23.640    6.6140
   23.775    6.3612
   23.910    6.4244
   24.045    6.2770
   24.180    6.1822
   24.315    6.0348
   24.450    5.8136
   24.585    6.2033
   24.720    5.9716
   24.855    5.7399
   24.990    6.0032
   25.125    5.6977
   25.260    5.7399
   25.395    5.8873
   25.530    6.1190
   25.665    5.5292
   25.800    5.6556
   25.935    6.0558
   26.070    5.7399
   26.205    5.7504
   26.340    5.5714
   26.475    6.1295
   26.610    5.6977
   26.745    5.7715
   26.880    5.7399
   27.015    5.9294
   27.150    5.4555
   27.285    5.8452
   27.420    5.6872
   27.555    5.5924
   27.690    5.4871
   27.825    5.5924
   27.960    5.6029
   28.095    5.6977
   28.230    5.6556
   28.365    5.3818
   28.500    5.4871
   28.635    5.6977
   28.770    5.1290
   28.905    5.4239
   29.040    5.6135
   29.175    4.9500
   29.310    5.4766
   29.445    5.2449
   29.580    5.1395
   29.715    5.2554
   29.850    5.1711
   29.985    5.0974
   30.120    4.8447
   30.255    5.0237
   30.390    5.0448
   30.525    5.0764
   30.660    5.1606
   30.795    4.9605
   30.930    5.0448
   31.065    5.0342
   31.200    4.8447
   31.335    5.1395
   31.470    4.9394
   31.605    4.7499
   31.740    5.0553
   31.875    5.4660
   32.010    5.1185
   32.145    4.9078
   32.280    4.6235
   32.415    4.7393
   32.550    4.8763
   32.685    4.9184
   32.820    4.7288
   32.955    4.8763
   33.090    4.6551
   33.225    4.7709
   33.360    4.4760
   33.495    4.3391
   33.630    4.4760
   33.765    4.6867
   33.900    4.2443
   34.035    4.5287
   34.170    4.2338
   34.305    4.4760
   34.440    4.4760
   34.575    4.4866
   34.710    4.4128
   34.845    4.1811
   34.980    3.9810
   35.115    4.3497
   35.250    4.4234
   35.385    4.2022
   35.520    4.4128
   35.655    4.2127
   35.790    4.2970
   35.925    4.2022
   36.060    4.0232
   36.195    4.2127
   36.330    4.4339
   36.465    4.0337
   36.600    4.2970
   36.735    4.3497
   36.870    4.2022
   37.005    4.4023
   37.140    4.4444
   37.275    3.8757
   37.410    4.2549
   37.545    4.1601
   37.680    4.1074
   37.815    4.3707
   37.950    4.1601
   38.085    4.0969
   38.220    4.2443
   38.355    4.1390
   38.490    4.0232
   38.625    4.2865
   38.760    4.0126
   38.895    3.7599
   39.030    4.0969
   39.165    3.9179
   39.300    4.2233
   39.435    4.1601
   39.570    3.7704
   39.705    4.1180
   39.840    4.2022
   39.975    4.0126
   39.990    4.1390