File: data/PXRD/PXRD_KE-048-1-2_Cu-Ka1_capillary-1mm_5s-deg.xyd
    1.500   32.7541
    1.545   32.7225
    1.590   31.5429
    1.635   30.6582
    1.680   28.5835
    1.725   30.1001
    1.770   29.2680
    1.815   28.3202
    1.860   28.0147
    1.905   27.6883
    1.950   27.1406
    1.995   27.5408
    2.040   27.1090
    2.085   27.1722
    2.130   28.2359
    2.175   28.0253
    2.220   28.8257
    2.265   28.8678
    2.310   29.1417
    2.355   29.6788
    2.400   29.8894
    2.445   31.1743
    2.490   33.6388
    2.535   34.3865
    2.580   35.7557
    2.625   37.6830
    2.670   38.9889
    2.715   40.8320
    2.760   43.4755
    2.805   45.2659
    2.850   48.9731
    2.895   52.0906
    2.940   56.9142
    2.985   60.6740
    3.030   66.1295
    3.075   73.3649
    3.120   78.3886
    3.165   88.8784
    3.210   98.5150
    3.255  111.6904
    3.300  129.1943
    3.345  150.1949
    3.390  180.2738
    3.435  227.4987
    3.480  260.0527
    3.525  206.8141
    3.570  122.6540
    3.615   93.1754
    3.660   91.1322
    3.705   99.5577
    3.750  113.7336
    3.795  132.5961
    3.840  162.8225
    3.885  202.4118
    3.930  203.2228
    3.975  134.7762
    4.020   77.3670
    4.065   46.2559
    4.110   31.3533
    4.155   21.9589
    4.200   17.8831
    4.245   14.9236
    4.290   13.8494
    4.335   12.1748
    4.380   11.6272
    4.425   11.1216
    4.470   10.7636
    4.515   10.2686
    4.560   10.7109
    4.605    9.3839
    4.650    9.4260
    4.695    9.2470
    4.740    9.7841
    4.785    9.2575
    4.830    9.3418
    4.875    9.8894
    4.920    9.1522
    4.965    9.2154
    5.010    9.3944
    5.055   10.0685
    5.100   10.0685
    5.145   10.8268
    5.190   10.6161
    5.235   11.1322
    5.280   11.4692
    5.325   12.1327
    5.370   12.8805
    5.415   14.2496
    5.460   16.0506
    5.505   19.7367
    5.550   23.0226
    5.595   13.0490
    5.640    8.5308
    5.685    7.8041
    5.730    8.4887
    5.775    7.6672
    5.820    8.4255
    5.865    8.2254
    5.910    7.5829
    5.955    7.9516
    6.000    8.2149
    6.045    8.2254
    6.090    8.0358
    6.135    8.2043
    6.180    8.5940
    6.225    8.7414
    6.270    8.7204
    6.315    8.9521
    6.360    9.1732
    6.405   10.0053
    6.450   10.5003
    6.495   10.8478
    6.540   12.2486
    6.585   12.5118
    6.630   14.1548
    6.675   16.1559
    6.720   18.0095
    6.765   21.3691
    6.810   24.2654
    6.855   27.8884
    6.900   34.8605
    6.945   42.9173
    6.990   44.8763
    7.035   30.5845
    7.080   17.6198
    7.125   11.9115
    7.170   10.5845
    7.215   10.9531
    7.260    9.8894
    7.305   10.4687
    7.350   11.0479
    7.395   11.3007
    7.440   11.8483
    7.485   12.5329
    7.530   14.2075
    7.575   15.6819
    7.620   18.7151
    7.665   21.3691
    7.710   25.2343
    7.755   31.3955
    7.800   35.4186
    7.845   38.5571
    7.890   35.4608
    7.935   27.4039
    7.980   21.5377
    8.025   16.6614
    8.070   13.6809
    8.115   11.4481
    8.160   10.2159
    8.205    9.1417
    8.250    9.5419
    8.295    8.1517
    8.340    8.6361
    8.385    8.1306
    8.430    7.9410
    8.475    8.1727
    8.520    7.4882
    8.565    7.4460
    8.610    7.5935
    8.655    7.1406
    8.700    7.4250
    8.745    7.6567
    8.790    7.5092
    8.835    7.4987
    8.880    7.1617
    8.925    6.6667
    8.970    7.3512
    9.015    7.0563
    9.060    6.6140
    9.105    7.1933
    9.150    7.4250
    9.195    7.4039
    9.240    7.4776
    9.285    7.5092
    9.330    7.5619
    9.375    7.6251
    9.420    8.4571
    9.465    8.5940
    9.510    9.8894
    9.555   11.7641
    9.600   14.1022
    9.645   11.8905
    9.690    7.8041
    9.735    7.2143
    9.780    7.3091
    9.825    6.8562
    9.870    6.9089
    9.915    7.5724
    9.960    7.2143
   10.005    7.6567
   10.050    7.3512
   10.095    7.2038
   10.140    7.2986
   10.185    7.5619
   10.230    8.1727
   10.275    8.2780
   10.320    8.2991
   10.365    9.6051
   10.410    9.4787
   10.455    8.3939
   10.500    8.7625
   10.545    7.6040
   10.590    7.4144
   10.635    7.4460
   10.680    7.5935
   10.725    7.7199
   10.770    7.5724
   10.815    7.7199
   10.860    7.7514
   10.905    7.5197
   10.950    8.2780
   10.995    7.8989
   11.040    8.5729
   11.085    9.7314
   11.130    9.0574
   11.175    8.2675
   11.220    7.8462
   11.265    7.2459
   11.310    7.5092
   11.355    7.9937
   11.400    8.2464
   11.445    8.0885
   11.490    8.6151
   11.535    8.4992
   11.580    9.6788
   11.625    9.5524
   11.670    9.7420
   11.715   10.4897
   11.760   11.7114
   11.805   11.1532
   11.850   10.1316
   11.895    9.3734
   11.940    9.1732