File: data/PXRD/PXRD_KE-222_Co-Ka1_capillary-1mm_5s-deg.xyd
    1.500    8.6142
    1.635    8.1327
    1.770    7.5120
    1.905    6.6025
    2.040    5.7357
    2.175    5.8213
    2.310    5.0829
    2.445    4.5800
    2.580    4.2376
    2.715    4.0663
    2.850    3.9914
    2.985    3.9486
    3.120    3.5420
    3.255    3.8951
    3.390    4.0877
    3.525    4.7298
    3.660    5.4361
    3.795    6.2065
    3.930    8.1327
    4.065   10.6688
    4.200   15.4307
    4.335   27.3301
    4.470   64.6228
    4.605    2.5682
    4.740    1.6265
    4.875    1.7228
    5.010    1.6693
    5.145    1.5088
    5.280    1.5516
    5.415    1.4660
    5.550    1.6693
    5.685    1.5623
    5.820    2.0867
    5.955    2.9213
    6.090    4.2162
    6.225    7.5869
    6.360   21.0166
    6.495    1.4339
    6.630    1.0808
    6.765    1.0808
    6.900    1.1450
    7.035    1.2199
    7.170    1.2627
    7.305    1.4232
    7.440    1.4981
    7.575    1.6800
    7.710    2.6859
    7.845   10.1338
    7.980    0.9417
    8.115    1.0380
    8.250    0.9845
    8.385    1.1236
    8.520    1.1236
    8.655    1.2199
    8.790    1.5730
    8.925    2.5682
    9.060    8.2397
    9.195    0.9096
    9.330    1.0594
    9.465    1.0273
    9.600    0.8989
    9.735    0.9631
    9.870    0.9845
   10.005    1.2092
   10.140    2.0653
   10.275    0.9845
   10.410    0.8882
   10.545    0.9738
   10.680    1.0594
   10.815    1.6907
   10.950    2.8250
   11.085   11.5570
   11.220    0.9524
   11.355    0.8240
   11.490    0.8347
   11.625    0.8133
   11.760    1.1343
   11.895    1.9904
   12.030    3.8523
   12.165    0.6528
   12.300    0.7812
   12.435    0.9310
   12.570    0.9738
   12.705    1.5944
   12.840    5.2648
   12.975    0.9096
   13.110    0.8775
   13.245    0.8668
   13.380    1.0166
   13.515    2.0760
   13.650    4.1734
   13.785    0.6314
   13.920    0.8347
   14.055    0.7705
   14.190    0.6742
   14.325    1.0166
   14.460    0.8240
   14.595    0.7170
   14.730    0.8454
   14.865    0.9096
   15.000    1.6907
   15.135    1.0915
   15.270    0.7491
   15.405    0.8561
   15.540    0.7277
   15.675    1.0166
   15.810    0.9952
   15.945    0.7812
   16.080    0.7598
   16.215    1.0059
   16.350    2.1616
   16.485    0.6528
   16.620    0.5993
   16.755    0.7063
   16.890    0.7277
   17.025    0.6742
   17.160    0.7277
   17.295    0.7063
   17.430    0.6742
   17.565    0.9203
   17.700    0.6528
   17.835    0.8347
   17.970    0.5778
   18.105    0.6528
   18.240    0.6635
   18.375    0.6635
   18.510    0.7705
   18.645    0.8133
   18.780    1.1664
   18.915    0.6314
   19.050    0.7277
   19.185    0.7491
   19.320    1.3376
   19.455    0.6635
   19.590    0.6314
   19.725    0.9631
   19.860    2.5575
   19.995    0.8133
   20.130    0.7063
   20.265    0.8775
   20.400    1.0166
   20.535    0.7170
   20.670    0.5671
   20.805    1.0273
   20.940    0.9310
   21.075    0.6314
   21.210    0.8133
   21.345    0.9096
   21.480    0.7277
   21.615    0.7384
   21.750    0.7598
   21.885    0.8882
   22.020    0.5886
   22.155    0.6956
   22.290    0.8989
   22.425    0.7705
   22.560    0.7598
   22.695    0.7491
   22.830    1.1664
   22.965    0.6207
   23.100    0.7384
   23.235    0.8133
   23.370    0.7277
   23.505    0.7812
   23.640    1.1343
   23.775    1.7228
   23.910    0.8240
   24.045    0.7919
   24.180    0.7919
   24.315    0.8133
   24.450    0.6956
   24.585    0.8775
   24.720    0.7812
   24.855    0.7063
   24.990    0.6849
   25.125    0.7812
   25.260    0.8240
   25.395    0.8882
   25.530    0.9417
   25.665    0.7384
   25.800    0.8882
   25.935    0.8133
   26.070    0.6742
   26.205    1.2520
   26.340    1.7228
   26.475    0.7705
   26.610    1.5944
   26.745    1.6586
   26.880    0.7277
   27.015    1.0487
   27.150    0.8775
   27.285    0.8240
   27.420    0.7812
   27.555    0.8240
   27.690    0.9096
   27.825    0.9096
   27.960    0.6207
   28.095    0.6956
   28.230    0.7384
   28.365    0.6635
   28.500    0.7705
   28.635    0.8347
   28.770    0.5029
   28.905    0.8347
   29.040    0.9096
   29.175    0.7063
   29.310    0.5993
   29.445    0.6742
   29.580    0.6635
   29.715    0.8133
   29.850    0.7277
   29.985    0.7598
   30.120    1.7228
   30.255    0.6635
   30.390    0.7812
   30.525    0.5993
   30.660    0.6635
   30.795    1.0594
   30.930    0.6314
   31.065    0.5136
   31.200    0.5136
   31.335    0.6528
   31.470    0.9845
   31.605    0.6635
   31.740    0.6849
   31.875    0.6421
   32.010    0.5350
   32.145    0.7598
   32.280    0.5671
   32.415    0.5886
   32.550    0.7598
   32.685    0.5993
   32.820    0.9524
   32.955    0.6956
   33.090    0.6956
   33.225    0.9203
   33.360    0.6100
   33.495    0.5671
   33.630    0.4387
   33.765    0.7170
   33.900    0.6207
   34.035    0.5350
   34.170    0.8668
   34.305    0.4601
   34.440    0.4708
   34.575    0.4922
   34.710    0.5886
   34.845    0.5778
   34.980    0.5993
   35.115    0.6849
   35.250    0.5350
   35.385    0.5457
   35.520    0.5136
   35.655    0.6421
   35.790    0.5671
   35.925    0.4173
   36.060    0.4494
   36.195    0.4387
   36.330    0.4922
   36.465    0.4173
   36.600    0.5993
   36.735    0.5243
   36.870    0.4922
   37.005    0.4922
   37.140    0.6100
   37.275    0.5029
   37.410    0.5993
   37.545    0.5564
   37.680    0.3959
   37.815    0.4387
   37.950    0.3745
   38.085    0.4922
   38.220    0.3424
   38.355    0.4815
   38.490    0.4922
   38.625    0.4173
   38.760    0.4494
   38.895    0.3210
   39.030    0.4173
   39.165    0.3745
   39.300    0.6314
   39.435    0.4815
   39.570    0.6314
   39.705    0.5029
   39.840    0.4280
   39.975    0.4173
   39.990    0.3745