File: data/PXRD/PXRD_KE-088_Cu-Ka1_film-3mm_5s-deg.xyd
    1.500   21.4218
    1.635   17.9463
    1.770   14.7341
    1.905   11.8694
    2.040   11.0795
    2.175    9.8052
    2.310    8.8152
    2.445    8.3307
    2.580    7.5303
    2.715    7.4355
    2.850    7.0669
    2.985    6.4560
    3.120    6.3086
    3.255    6.1506
    3.390    5.8768
    3.525    5.8452
    3.660    5.3502
    3.795    5.6977
    3.930    5.6872
    4.065    5.8136
    4.200    5.8662
    4.335    6.3507
    4.470    5.6135
    4.605    6.0348
    4.740    5.8557
    4.875    6.2981
    5.010    5.9716
    5.145    6.4244
    5.280    6.9194
    5.415    7.6672
    5.550    7.6145
    5.685    7.5513
    5.820    6.7299
    5.955    6.6667
    6.090    5.6977
    6.225    5.6029
    6.360    5.3818
    6.495    5.3397
    6.630    5.1290
    6.765    4.9394
    6.900    4.8236
    7.035    4.4971
    7.170    4.3391
    7.305    4.5287
    7.440    4.3813
    7.575    4.0864
    7.710    4.0021
    7.845    3.8652
    7.980    3.5598
    8.115    3.7388
    8.250    3.9494
    8.385    3.5071
    8.520    3.4439
    8.655    3.5492
    8.790    3.4439
    8.925    3.5071
    9.060    3.2333
    9.195    3.1806
    9.330    3.4439
    9.465    3.1912
    9.600    3.3386
    9.735    3.2227
    9.870    3.2017
   10.005    3.2649
   10.140    3.2859
   10.275    3.5176
   10.410    3.1385
   10.545    3.4966
   10.680    3.4229
   10.815    3.7388
   10.950    3.5071
   11.085    3.6124
   11.220    3.4544
   11.355    3.5598
   11.490    3.4229
   11.625    3.5071
   11.760    3.3386
   11.895    3.3070
   12.030    3.7493
   12.165    3.3807
   12.300    3.5387
   12.435    3.3281
   12.570    3.2965
   12.705    3.3070
   12.840    3.5703
   12.975    3.2754
   13.110    3.3386
   13.245    3.4439
   13.380    3.1596
   13.515    3.4439
   13.650    3.6124
   13.785    3.3913
   13.920    3.3807
   14.055    3.8863
   14.190    4.0021
   14.325    3.8020
   14.460    3.6440
   14.595    3.8125
   14.730    3.7072
   14.865    3.6967
   15.000    3.4755
   15.135    3.4018
   15.270    3.5071
   15.405    3.5387
   15.540    3.5914
   15.675    3.7072
   15.810    3.3597
   15.945    3.7177
   16.080    3.6019
   16.215    3.8125
   16.350    3.3070
   16.485    3.5808
   16.620    3.4650
   16.755    3.4860
   16.890    3.6230
   17.025    3.4018
   17.160    3.4966
   17.295    3.6862
   17.430    3.6862
   17.565    3.3913
   17.700    3.4966
   17.835    3.2543
   17.970    3.5071
   18.105    3.4123
   18.240    3.4123
   18.375    3.4229
   18.510    3.8547
   18.645    3.7388
   18.780    3.7388
   18.915    3.4650
   19.050    3.3702
   19.185    3.7388
   19.320    3.6651
   19.455    3.3702
   19.590    3.8547
   19.725    3.7915
   19.860    3.5387
   19.995    3.6335
   20.130    3.7493
   20.265    3.3491
   20.400    3.5492
   20.535    3.6651
   20.670    3.3281
   20.805    3.5387
   20.940    3.1280
   21.075    3.4123
   21.210    3.2754
   21.345    3.1280
   21.480    3.2227
   21.615    3.3702
   21.750    3.3281
   21.885    3.2333
   22.020    3.2543
   22.155    3.1385
   22.290    2.8120
   22.425    3.1806
   22.560    3.2649
   22.695    2.9279
   22.830    3.1701
   22.965    3.1174
   23.100    2.9384
   23.235    2.9489
   23.370    2.7383
   23.505    2.9595
   23.640    2.6751
   23.775    2.7699
   23.910    2.6751
   24.045    2.8225
   24.180    2.5276
   24.315    2.6014
   24.450    2.7067
   24.585    2.6646
   24.720    2.2538
   24.855    2.5382
   24.990    2.4223
   25.125    2.3802
   25.260    2.5698
   25.395    2.5487
   25.530    3.4123
   25.665    2.6119
   25.800    2.5592
   25.935    2.3907
   26.070    2.3802
   26.205    2.5066
   26.340    2.5276
   26.475    2.1906
   26.610    2.4645
   26.745    2.5171
   26.880    2.2749
   27.015    2.2538
   27.150    2.1906
   27.285    2.1485
   27.420    1.9589
   27.555    2.2538
   27.690    1.9589
   27.825    2.2117
   27.960    2.0432
   28.095    1.9695
   28.230    1.9905
   28.365    1.9063
   28.500    1.9063
   28.635    2.0537
   28.770    2.0326
   28.905    2.0326
   29.040    2.0011
   29.175    1.7272
   29.310    1.9800
   29.445    1.6851
   29.580    1.7062
   29.715    1.8115
   29.850    1.5692
   29.985    1.6008
   30.120    1.6851
   30.255    1.6956
   30.390    1.6535
   30.525    1.6324
   30.660    1.7694
   30.795    1.5166
   30.930    1.2322
   31.065    1.2217
   31.200    1.4639
   31.335    1.3902
   31.470    1.5061
   31.605    1.5166
   31.740    2.4750
   31.875    1.3902
   32.010    1.4534
   32.145    1.1585
   32.280    1.4113
   32.415    1.3060
   32.550    1.2112
   32.685    1.2006
   32.820    1.2217
   32.955    1.3375
   33.090    1.2744
   33.225    1.2954
   33.360    1.1901
   33.495    1.3270
   33.630    1.2428
   33.765    1.4323
   33.900    1.3586
   34.035    1.2849
   34.170    1.1058
   34.305    1.0848
   34.440    1.1901
   34.575    1.1269
   34.710    1.0637
   34.845    1.1901
   34.980    1.2954
   35.115    1.1374
   35.250    1.1269
   35.385    1.0637
   35.520    1.1901
   35.655    1.0532
   35.790    1.1269
   35.925    1.0742
   36.060    1.1480
   36.195    1.0216
   36.330    1.0321
   36.465    1.2322
   36.600    1.1058
   36.735    1.2112
   36.870    1.0321
   37.005    1.1901
   37.140    1.0321
   37.275    1.0848
   37.410    1.0005
   37.545    1.1480
   37.680    1.0742
   37.815    0.9268
   37.950    1.0953
   38.085    1.2006
   38.220    1.0005
   38.355    1.0005
   38.490    1.2322
   38.625    1.0216
   38.760    0.8531
   38.895    1.1374
   39.030    1.0953
   39.165    1.1480
   39.300    0.9584
   39.435    0.9479
   39.570    1.0321
   39.705    1.0532
   39.840    1.0111
   39.975    1.0111
   39.990    0.8847