File: data/PXRD/PXRD_KE-015_Cu-Ka1_capillary-1mm_5s-deg.xyd
    1.500   26.5508
    1.635   23.3070
    1.770   21.2744
    1.905   19.4839
    2.040   16.8299
    2.175   15.7978
    2.310   15.0606
    2.445   14.4497
    2.580   13.0279
    2.715   12.5750
    2.850   11.9010
    2.985   11.7746
    3.120   11.1743
    3.255   10.7004
    3.390   11.1743
    3.525   10.4897
    3.660   10.6161
    3.795   10.5003
    3.930    9.6788
    4.065    9.1206
    4.200    9.3207
    4.335    8.4360
    4.470    8.7414
    4.605    8.2359
    4.740    8.5624
    4.875    8.3939
    5.010    8.5413
    5.145    8.3412
    5.280    9.4681
    5.415    9.6788
    5.550    9.4787
    5.685    9.0679
    5.820   10.3318
    5.955   14.1127
    6.090    8.3728
    6.225    8.2886
    6.360    8.1201
    6.495    8.1622
    6.630    7.6777
    6.765    8.4150
    6.900    8.0569
    7.035    7.8041
    7.170    8.4150
    7.305    7.8884
    7.440    7.8673
    7.575    7.8673
    7.710    7.8989
    7.845    7.7199
    7.980    7.9305
    8.115    8.5097
    8.250    7.7304
    8.385    8.0779
    8.520    8.1833
    8.655    8.0358
    8.790    7.8778
    8.925    8.1727
    9.060    8.0147
    9.195    8.0885
    9.330    9.5945
    9.465   13.0384
    9.600    9.1101
    9.735    8.3728
    9.870    8.1833
   10.005    8.0569
   10.140    8.3202
   10.275    8.3412
   10.410    8.5624
   10.545    9.0574
   10.680   12.3539
   10.815   10.8057
   10.950    9.6788
   11.085    8.8152
   11.220    7.7620
   11.355    7.7409
   11.490    8.7098
   11.625    9.2996
   11.760    8.7941
   11.895    8.8678
   12.030    8.0674
   12.165    7.3091
   12.300    7.3091
   12.435    7.5303
   12.570    7.3091
   12.705    7.8252
   12.840    7.9726
   12.975    8.1938
   13.110    8.3202
   13.245    7.5619
   13.380    7.2986
   13.515    7.2986
   13.650    7.3407
   13.785    7.3618
   13.920    7.5619
   14.055    7.2670
   14.190    7.6251
   14.325    7.4987
   14.460    7.5197
   14.595    7.5197
   14.730    7.5408
   14.865    7.5829
   15.000    7.3196
   15.135    7.4039
   15.270    7.4460
   15.405    7.3196
   15.540    7.5829
   15.675    7.6251
   15.810    7.9410
   15.945    8.7414
   16.080    7.5829
   16.215    7.2670
   16.350    7.3618
   16.485    7.1406
   16.620    7.2143
   16.755    7.7936
   16.890    8.0674
   17.025    7.3196
   17.160    7.5829
   17.295    7.7830
   17.430    7.2143
   17.565    7.2880
   17.700    7.4987
   17.835    7.4250
   17.970    7.8989
   18.105    7.6251
   18.240    7.3302
   18.375    7.4039
   18.510    7.7304
   18.645    7.4566
   18.780    7.8568
   18.915    8.0463
   19.050    7.9094
   19.185    7.6461
   19.320    7.5724
   19.455    7.5935
   19.590    7.5935
   19.725    7.5619
   19.860    7.5724
   19.995    7.7620
   20.130    7.7620
   20.265    7.7093
   20.400    7.7409
   20.535    7.9621
   20.670    7.7304
   20.805    7.6672
   20.940    7.4460
   21.075    8.1622
   21.210    7.9726
   21.345    8.2991
   21.480    7.7936
   21.615    8.2359
   21.750    8.0042
   21.885    7.8357
   22.020    8.0990
   22.155    8.0358
   22.290    8.1201
   22.425    7.7830
   22.560    8.0042
   22.695    7.6988
   22.830    8.5203
   22.965    7.9410
   23.100    8.2359
   23.235    8.3307
   23.370    8.1201
   23.505    8.2359
   23.640    8.3412
   23.775    7.4460
   23.910    7.7936
   24.045    8.1833
   24.180    7.8989
   24.315    7.6567
   24.450    7.5935
   24.585    7.7936
   24.720    7.8041
   24.855    8.0463
   24.990    7.3828
   25.125    7.4039
   25.260    7.5724
   25.395    7.7725
   25.530    7.6988
   25.665    7.2354
   25.800    7.7936
   25.935    7.6988
   26.070    7.3618
   26.205    7.6777
   26.340    7.7304
   26.475    7.4776
   26.610    7.1406
   26.745    7.0774
   26.880    7.3723
   27.015    7.2249
   27.150    7.8462
   27.285    7.4776
   27.420    7.4776
   27.555    7.1827
   27.690    7.4460
   27.825    7.2354
   27.960    7.0985
   28.095    7.2670
   28.230    6.9300
   28.365    7.3091
   28.500    7.1933
   28.635    7.3618
   28.770    6.8352
   28.905    7.0037
   29.040    6.6983
   29.175    6.7615
   29.310    6.5824
   29.445    6.7404
   29.580    7.0774
   29.715    6.6983
   29.850    6.7930
   29.985    6.8246
   30.120    6.8457
   30.255    6.9194
   30.390    6.4244
   30.525    6.7615
   30.660    7.1933
   30.795    6.4455
   30.930    6.8246
   31.065    6.1190
   31.200    6.2981
   31.335    6.5508
   31.470    6.7509
   31.605    6.5613
   31.740    6.2875
   31.875    6.8036
   32.010    6.4244
   32.145    6.2033
   32.280    6.4666
   32.415    6.6351
   32.550    6.2770
   32.685    6.0664
   32.820    6.2875
   32.955    5.7609
   33.090    6.1190
   33.225    6.1085
   33.360    6.4350
   33.495    6.5087
   33.630    6.4350
   33.765    6.2981
   33.900    6.2981
   34.035    6.0242
   34.170    5.8136
   34.305    5.9716
   34.440    5.8873
   34.575    5.8873
   34.710    5.5503
   34.845    6.0769
   34.980    5.9189
   35.115    5.9610
   35.250    5.9400
   35.385    5.9400
   35.520    6.0874
   35.655    6.0453
   35.790    5.4134
   35.925    6.0137
   36.060    5.7715
   36.195    5.7399
   36.330    5.8768
   36.465    5.5398
   36.600    5.5924
   36.735    5.7504
   36.870    5.4344
   37.005    5.2133
   37.140    5.7399
   37.275    5.3818
   37.410    5.8031
   37.545    5.6451
   37.680    5.6872
   37.815    5.5608
   37.950    5.5819
   38.085    5.3291
   38.220    5.6345
   38.355    5.7504
   38.490    5.5819
   38.625    5.2659
   38.760    5.7504
   38.895    5.3502
   39.030    5.3607
   39.165    5.3818
   39.300    5.5187
   39.435    5.6556
   39.570    5.7504
   39.705    5.5398
   39.840    5.4976
   39.975    5.3186
   39.990    5.5608