File: data/PXRD/PXRD_KE-305-2F_Cu-Ka1_capillary-1mm_3s-deg.xyd
    1.500   20.6600
    1.635   17.8866
    1.770   17.4127
    1.905   15.8856
    2.040   15.0255
    2.175   14.7622
    2.310   13.4106
    2.445   14.1127
    2.580   14.2180
    2.715   15.4818
    2.850   17.7988
    2.985   19.3260
    3.120   22.5733
    3.255   28.0499
    3.390   37.7392
    3.525   52.5364
    3.660   82.3240
    3.795  183.1139
    3.930   34.0179
    4.065    8.9872
    4.200    8.3377
    4.335    7.6005
    4.470    7.9340
    4.605    8.0569
    4.740    8.8994
    4.875    9.3031
    5.010   11.4622
    5.145   16.4824
    5.280   25.5749
    5.415   55.9768
    5.550   16.9212
    5.685    7.1090
    5.820    7.2845
    5.955    6.3191
    6.090    6.3542
    6.225    7.4601
    6.360    8.2500
    6.495   10.3914
    6.630   16.1840
    6.765   16.1489
    6.900    6.4595
    7.035    6.6000
    7.170    6.3367
    7.305    6.4946
    7.440    7.2143
    7.575    9.5664
    7.710   15.3590
    7.845    8.2851
    7.980    6.3367
    8.115    5.6872
    8.250    5.7223
    8.385    5.4415
    8.520    5.4590
    8.655    7.0037
    8.790    6.0909
    8.925    5.8452
    9.060    6.7930
    9.195    7.4425
    9.330   10.8654
    9.465   20.7653
    9.600   14.3233
    9.735    6.2489
    9.870    6.3191
   10.005    6.3893
   10.140    7.9867
   10.275   15.0079
   10.410    6.5298
   10.545    5.2133
   10.680    5.8101
   10.815    6.1962
   10.950    9.7069
   11.085    8.4957
   11.220    5.5292
   11.355    5.5117
   11.490    6.4244
   11.625    9.4962
   11.760    8.8994
   11.895    5.2133
   12.030    5.4766
   12.165    5.5468
   12.300    6.4069
   12.435    5.3186
   12.570    5.4766
   12.705    5.7399
   12.840    7.1090
   12.975   10.1632
   13.110    5.0377
   13.245    5.3537
   13.380    5.5994
   13.515    7.8287
   13.650    5.2659
   13.785    5.4766
   13.920    5.7750
   14.055    9.6893
   14.190    5.8803
   14.325    4.8798
   14.460    5.5819
   14.595    5.1431
   14.730    5.4239
   14.865    5.0026
   15.000    5.6170
   15.135    6.2840
   15.270    5.3888
   15.405    4.8447
   15.540    5.0377
   15.675    5.2659
   15.810    5.3361
   15.945    5.1431
   16.080    5.9505
   16.215    5.4766
   16.350    5.4766
   16.485    5.4415
   16.620    6.2489
   16.755    5.3010
   16.890    5.6345
   17.025    8.9696
   17.160    5.6170
   17.295    5.0202
   17.430    5.3537
   17.565    5.3010
   17.700    5.2484
   17.835    5.3186
   17.970    6.3893
   18.105    5.0202
   18.240    5.2133
   18.375    5.5643
   18.510    5.8101
   18.645    5.3186
   18.780    5.4415
   18.915    5.0202
   19.050    5.0904
   19.185    5.1431
   19.320    5.1606
   19.455    5.1957
   19.590    6.1260
   19.725    5.2308
   19.860    5.2659
   19.995    5.3361
   20.130    5.1782
   20.265    5.8803
   20.400    7.8638
   20.535    5.1606
   20.670    4.9675
   20.805    5.4941
   20.940    5.2308
   21.075    5.4766
   21.210    5.3712
   21.345    4.7042
   21.480    4.7218
   21.615    5.2659
   21.750    5.8627
   21.885    5.8452
   22.020    5.6170
   22.155    5.7399
   22.290    5.7574
   22.425    5.8452
   22.560    8.7590
   22.695    6.0558
   22.830    6.8633
   22.965    7.8462
   23.100    5.1957
   23.235    5.7925
   23.370    5.7223
   23.505    5.2133
   23.640    5.3537
   23.775    5.3010
   23.910    6.6000
   24.045    5.1431
   24.180    5.3361
   24.315    5.1255
   24.450    5.1957
   24.585    5.5468
   24.720    5.0728
   24.855    5.1957
   24.990    5.0553
   25.125    5.4941
   25.260    5.4064
   25.395    5.1782
   25.530    5.6697
   25.665    5.2484
   25.800    7.3899
   25.935    6.0909
   26.070    5.6697
   26.205    5.0202
   26.340    5.3537
   26.475    5.5643
   26.610    5.0553
   26.745    4.3005
   26.880    4.9500
   27.015    5.7925
   27.150    5.5468
   27.285    4.9851
   27.420    4.8271
   27.555    5.5819
   27.690    5.5468
   27.825    4.9851
   27.960    5.4239
   28.095    5.1606
   28.230    5.6521
   28.365    5.3537
   28.500    5.9681
   28.635    4.3356
   28.770    4.9324
   28.905    4.6867
   29.040    5.5117
   29.175    4.4760
   29.310    5.6345
   29.445    4.8622
   29.580    5.0026
   29.715    4.5287
   29.850    5.0904
   29.985    4.4936
   30.120    4.8095
   30.255    4.7393
   30.390    4.7569
   30.525    4.4936
   30.660    4.7920
   30.795    4.6165
   30.930    4.7569
   31.065    4.3005
   31.200    4.4234
   31.335    4.8447
   31.470    4.5463
   31.605    4.8271
   31.740    5.4766
   31.875    5.0377
   32.010    4.7920
   32.145    5.1255
   32.280    4.2478
   32.415    4.3005
   32.550    3.8090
   32.685    4.5814
   32.820    4.3532
   32.955    4.1776
   33.090    3.4580
   33.225    4.2127
   33.360    4.2478
   33.495    4.1425
   33.630    4.4585
   33.765    4.2303
   33.900    4.8622
   34.035    4.7569
   34.170    4.2478
   34.305    4.3181
   34.440    4.3005
   34.575    4.1250
   34.710    3.8266
   34.845    4.1074
   34.980    3.7739
   35.115    3.9494
   35.250    4.0021
   35.385    4.1074
   35.520    3.7564
   35.655    4.0372
   35.790    3.8968
   35.925    3.5633
   36.060    4.2478
   36.195    3.7739
   36.330    4.3005
   36.465    4.0021
   36.600    4.0021
   36.735    4.3005
   36.870    3.5282
   37.005    3.4053
   37.140    4.2303
   37.275    4.1601
   37.410    3.8441
   37.545    3.7388
   37.680    3.8792
   37.815    4.1074
   37.950    3.8792
   38.085    3.6686
   38.220    3.5633
   38.355    3.9494
   38.490    3.6510
   38.625    3.7213
   38.760    3.3526
   38.895    3.5106
   39.030    3.5984
   39.165    3.6335
   39.300    3.6335
   39.435    3.9494
   39.570    3.6159
   39.705    3.6335
   39.840    3.9319
   39.975    3.4404
   39.990    3.4229