File: data/PXRD/PXRD_KE-296_Cu-Ka1_film-3mm_3s-deg.xyd
    1.500   13.7792
    1.635   12.2345
    1.770   11.4095
    1.905   11.2515
    2.040    9.9526
    2.175    9.4611
    2.310    9.4962
    2.445    8.8292
    2.580    8.0920
    2.715    8.0920
    2.850    7.9867
    2.985    8.4781
    3.120    8.2324
    3.255    7.9867
    3.390    8.2324
    3.525    9.6367
    3.660   12.1643
    3.795   17.9393
    3.930    9.4260
    4.065    7.4952
    4.200    7.0563
    4.335    6.7053
    4.470    7.4601
    4.605    7.1441
    4.740    6.9510
    4.875    7.2494
    5.010    8.1095
    5.145    8.7239
    5.280   10.3388
    5.415   12.7962
    5.550   10.9356
    5.685   10.1457
    5.820    8.7590
    5.955    7.5478
    6.090    7.4425
    6.225    7.2319
    6.360    7.2494
    6.495    7.0212
    6.630    7.6883
    6.765    8.4781
    6.900    6.3893
    7.035    6.1436
    7.170    6.0032
    7.305    5.8452
    7.440    5.3537
    7.575    5.4941
    7.710    5.4590
    7.845    5.6697
    7.980    4.8973
    8.115    4.8622
    8.250    4.5989
    8.385    4.4936
    8.520    4.6165
    8.655    4.6691
    8.790    4.1074
    8.925    4.0548
    9.060    4.5814
    9.195    4.9851
    9.330    5.0553
    9.465    6.0909
    9.600    5.6521
    9.735    4.5111
    9.870    4.5287
   10.005    4.6691
   10.140    4.5989
   10.275    5.7048
   10.410    4.6165
   10.545    4.5287
   10.680    4.3532
   10.815    4.6691
   10.950    5.1782
   11.085    5.5643
   11.220    5.0202
   11.355    4.4585
   11.490    4.4936
   11.625    4.9675
   11.760    5.2835
   11.895    4.3532
   12.030    4.6691
   12.165    4.3707
   12.300    4.3707
   12.435    4.3532
   12.570    4.3181
   12.705    4.5287
   12.840    4.6516
   12.975    5.1957
   13.110    4.0197
   13.245    4.3356
   13.380    4.0899
   13.515    4.6165
   13.650    4.0197
   13.785    3.9319
   13.920    4.5814
   14.055    4.9500
   14.190    4.5989
   14.325    4.2478
   14.460    4.7042
   14.595    4.5989
   14.730    4.1601
   14.865    4.8622
   15.000    4.3181
   15.135    4.5111
   15.270    4.0723
   15.405    4.1952
   15.540    4.3883
   15.675    4.0548
   15.810    4.0197
   15.945    4.7569
   16.080    4.4058
   16.215    4.3532
   16.350    4.1250
   16.485    4.3883
   16.620    4.3883
   16.755    3.8617
   16.890    4.0548
   17.025    4.6340
   17.160    4.4409
   17.295    4.0723
   17.430    4.0723
   17.565    4.2127
   17.700    4.3181
   17.835    4.6867
   17.970    4.4058
   18.105    4.7218
   18.240    3.9846
   18.375    4.5814
   18.510    3.9143
   18.645    4.0723
   18.780    4.4058
   18.915    4.3883
   19.050    4.4936
   19.185    4.1601
   19.320    3.6159
   19.455    4.0197
   19.590    4.2303
   19.725    3.9846
   19.860    3.9670
   19.995    3.6862
   20.130    3.8090
   20.265    3.9670
   20.400    4.0899
   20.535    3.8968
   20.670    3.8266
   20.805    3.3351
   20.940    3.5633
   21.075    3.4404
   21.210    3.6510
   21.345    3.7739
   21.480    3.7213
   21.615    3.7388
   21.750    3.5106
   21.885    3.4755
   22.020    3.5633
   22.155    4.0723
   22.290    3.5633
   22.425    3.4931
   22.560    4.1952
   22.695    3.7037
   22.830    3.3000
   22.965    3.9846
   23.100    3.8441
   23.235    3.6159
   23.370    3.3000
   23.505    2.9665
   23.640    3.6686
   23.775    2.8612
   23.910    3.2649
   24.045    3.1947
   24.180    3.0718
   24.315    3.3000
   24.450    2.8963
   24.585    3.0191
   24.720    2.9489
   24.855    3.2824
   24.990    3.1596
   25.125    3.0542
   25.260    3.0893
   25.395    2.6505
   25.530    3.0718
   25.665    3.4053
   25.800    3.5106
   25.935    3.0893
   26.070    3.1596
   26.205    2.6505
   26.340    2.8436
   26.475    2.7909
   26.610    2.8787
   26.745    3.1420
   26.880    2.7909
   27.015    2.7383
   27.150    2.6154
   27.285    2.7383
   27.420    2.5452
   27.555    2.8963
   27.690    2.6330
   27.825    2.7734
   27.960    3.3702
   28.095    2.9840
   28.230    2.7032
   28.365    2.8085
   28.500    2.7032
   28.635    2.7909
   28.770    2.7207
   28.905    3.3175
   29.040    2.7558
   29.175    2.2995
   29.310    2.6681
   29.445    2.5628
   29.580    2.4223
   29.715    2.3170
   29.850    2.0537
   29.985    2.1766
   30.120    2.3346
   30.255    2.1941
   30.390    2.4750
   30.525    1.8080
   30.660    2.2995
   30.795    2.1239
   30.930    2.2819
   31.065    2.2468
   31.200    1.7729
   31.335    2.2468
   31.470    2.2117
   31.605    2.0362
   31.740    2.2995
   31.875    2.8085
   32.010    2.3170
   32.145    4.2830
   32.280    1.9835
   32.415    2.3521
   32.550    1.9308
   32.685    1.8957
   32.820    2.3170
   32.955    2.0011
   33.090    2.0888
   33.225    1.8606
   33.360    1.7378
   33.495    1.9659
   33.630    1.7027
   33.765    2.4750
   33.900    2.1064
   34.035    2.1415
   34.170    1.8957
   34.305    1.5798
   34.440    1.7729
   34.575    1.8782
   34.710    1.8957
   34.845    1.8431
   34.980    1.7378
   35.115    1.9308
   35.250    1.7729
   35.385    1.8080
   35.520    1.9133
   35.655    1.8957
   35.790    1.7027
   35.925    1.6500
   36.060    1.9308
   36.195    1.7729
   36.330    1.6500
   36.465    1.7553
   36.600    2.0537
   36.735    1.8255
   36.870    1.9133
   37.005    1.7904
   37.140    1.7027
   37.275    1.6500
   37.410    1.4920
   37.545    1.7027
   37.680    1.7729
   37.815    1.7027
   37.950    1.5798
   38.085    1.8080
   38.220    1.6500
   38.355    1.4569
   38.490    1.7202
   38.625    1.9835
   38.760    1.4394
   38.895    1.5798
   39.030    1.5622
   39.165    1.7378
   39.300    1.3867
   39.435    1.7378
   39.570    1.8080
   39.705    1.4218
   39.840    1.5798
   39.975    1.6675
   39.990    1.6149