File: data/PXRD/PXRD_KE-291_Cu-Ka1_film-3mm_3s-deg.xyd
    1.500   16.0962
    1.635   14.6744
    1.770   12.9191
    1.905   12.3749
    2.040   11.4622
    2.175   10.9531
    2.310   10.4441
    2.445    9.9877
    2.580    9.4436
    2.715    9.4436
    2.850   10.1808
    2.985    9.9702
    3.120   11.8659
    3.255   15.2010
    3.390   24.3637
    3.525   20.4669
    3.660   24.5568
    3.795   52.6768
    3.930   21.4499
    4.065   14.4989
    4.200   11.1462
    4.335    8.9170
    4.470    8.3377
    4.605    8.7590
    4.740    8.3553
    4.875    8.9170
    5.010    9.6015
    5.145   10.3739
    5.280   12.8313
    5.415   21.6430
    5.550   13.3930
    5.685   10.5319
    5.820    8.9696
    5.955    8.3026
    6.090    7.6356
    6.225    7.7585
    6.360    7.6180
    6.495    7.9164
    6.630    9.0750
    6.765   10.3739
    6.900    7.8462
    7.035    7.1617
    7.170    6.3016
    7.305    6.0383
    7.440    6.2665
    7.575    6.6175
    7.710    8.3026
    7.845    6.0558
    7.980    5.8627
    8.115    5.7925
    8.250    5.3186
    8.385    5.1431
    8.520    5.3010
    8.655    5.7574
    8.790    5.0553
    8.925    5.1606
    9.060    4.9500
    9.195    4.7920
    9.330    5.1431
    9.465    8.1622
    9.600    6.9335
    9.735    4.9851
    9.870    4.8798
   10.005    5.1782
   10.140    5.6697
   10.275    7.6005
   10.410    5.3888
   10.545    5.0728
   10.680    5.4064
   10.815    5.1606
   10.950    6.0032
   11.085    6.6702
   11.220    4.9675
   11.355    5.3361
   11.490    4.7393
   11.625    6.1260
   11.760    6.5473
   11.895    5.3186
   12.030    5.0553
   12.165    5.3010
   12.300    5.1255
   12.435    4.8622
   12.570    4.9675
   12.705    5.1606
   12.840    5.0202
   12.975    6.3542
   13.110    4.4234
   13.245    5.0553
   13.380    5.0026
   13.515    5.5292
   13.650    4.8973
   13.785    4.8447
   13.920    4.9149
   14.055    6.7228
   14.190    5.6521
   14.325    5.4415
   14.460    5.3010
   14.595    5.4415
   14.730    5.0202
   14.865    4.8271
   15.000    4.7569
   15.135    5.3186
   15.270    4.7569
   15.405    4.9675
   15.540    5.0026
   15.675    4.6516
   15.810    4.9851
   15.945    4.5989
   16.080    5.2133
   16.215    4.4760
   16.350    4.4234
   16.485    4.5989
   16.620    5.4415
   16.755    4.6165
   16.890    5.0904
   17.025    5.6521
   17.160    4.9149
   17.295    4.6340
   17.430    4.5638
   17.565    4.8447
   17.700    4.6691
   17.835    4.3883
   17.970    4.6516
   18.105    4.5287
   18.240    4.5287
   18.375    5.3010
   18.510    4.9324
   18.645    4.5111
   18.780    4.5287
   18.915    4.3005
   19.050    4.8973
   19.185    4.4936
   19.320    4.3532
   19.455    4.4936
   19.590    5.1080
   19.725    4.1425
   19.860    4.4585
   19.995    4.5463
   20.130    4.8973
   20.265    4.4585
   20.400    5.7223
   20.535    4.1601
   20.670    4.5638
   20.805    4.0548
   20.940    3.8968
   21.075    4.3532
   21.210    4.1250
   21.345    3.9670
   21.480    4.1952
   21.615    4.0197
   21.750    4.3532
   21.885    4.1074
   22.020    4.5111
   22.155    4.0899
   22.290    3.9319
   22.425    3.7739
   22.560    4.9149
   22.695    4.0021
   22.830    4.3181
   22.965    4.8798
   23.100    3.9494
   23.235    4.1601
   23.370    3.8090
   23.505    3.8968
   23.640    3.6159
   23.775    3.8266
   23.910    3.9670
   24.045    3.5282
   24.180    3.5457
   24.315    3.2824
   24.450    3.4580
   24.585    3.7213
   24.720    3.5633
   24.855    3.7388
   24.990    3.5808
   25.125    3.4404
   25.260    3.9670
   25.395    3.3351
   25.530    3.5984
   25.665    3.0191
   25.800    4.3356
   25.935    3.6862
   26.070    3.4580
   26.205    3.3351
   26.340    3.3175
   26.475    3.3000
   26.610    3.2649
   26.745    3.2298
   26.880    3.3175
   27.015    3.6862
   27.150    3.1771
   27.285    3.3702
   27.420    3.0893
   27.555    3.0542
   27.690    3.3702
   27.825    3.2649
   27.960    3.2298
   28.095    3.3175
   28.230    3.2298
   28.365    3.1069
   28.500    3.3175
   28.635    2.8787
   28.770    2.8787
   28.905    3.3351
   29.040    2.9314
   29.175    2.8612
   29.310    3.5984
   29.445    2.7207
   29.580    3.1596
   29.715    2.5452
   29.850    2.8963
   29.985    2.5452
   30.120    2.8612
   30.255    2.6505
   30.390    2.8963
   30.525    2.5628
   30.660    2.7558
   30.795    2.4925
   30.930    2.5452
   31.065    2.3521
   31.200    2.4048
   31.335    2.4223
   31.470    2.6154
   31.605    2.6681
   31.740    2.4223
   31.875    2.5979
   32.010    2.4399
   32.145    2.9840
   32.280    2.3521
   32.415    2.3872
   32.550    2.2643
   32.685    2.5628
   32.820    2.4223
   32.955    2.3872
   33.090    2.4223
   33.225    2.2819
   33.360    2.1415
   33.495    1.9308
   33.630    2.3170
   33.765    2.3170
   33.900    2.2292
   34.035    2.1941
   34.170    2.5803
   34.305    2.1239
   34.440    2.1590
   34.575    2.1415
   34.710    2.4399
   34.845    2.3170
   34.980    2.3170
   35.115    2.2819
   35.250    2.4399
   35.385    2.0011
   35.520    2.3872
   35.655    2.1766
   35.790    2.0011
   35.925    2.2819
   36.060    1.8957
   36.195    2.0888
   36.330    2.2117
   36.465    2.4750
   36.600    2.0362
   36.735    2.0362
   36.870    2.2292
   37.005    2.1239
   37.140    2.3346
   37.275    2.0011
   37.410    2.1766
   37.545    2.4048
   37.680    2.0537
   37.815    2.1415
   37.950    2.2292
   38.085    2.0713
   38.220    2.1941
   38.355    2.3521
   38.490    2.0362
   38.625    2.1064
   38.760    2.1415
   38.895    2.0713
   39.030    1.9484
   39.165    2.0888
   39.300    2.2643
   39.435    2.2819
   39.570    2.1590
   39.705    2.1415
   39.840    1.9133
   39.975    2.0362
   39.990    1.9835