File: data/PXRD/PXRD_KE-092_Cu-Ka1_capillary-1mm_5s-deg.xyd
    1.500   18.8836
    1.635   18.1780
    1.770   16.9563
    1.905   16.6193
    2.040   16.0295
    2.175   16.4824
    2.310   17.1037
    2.445   17.4092
    2.580   19.5471
    2.715   22.1801
    2.850   24.6024
    2.985   32.0906
    3.120   40.6319
    3.255   55.3871
    3.390   84.3813
    3.525   77.2512
    3.660   40.1580
    3.795   42.8331
    3.930   45.3818
    4.065   38.1043
    4.200   25.1395
    4.335   15.8294
    4.470   11.5534
    4.605    9.3944
    4.740    8.0463
    4.875    7.2249
    5.010    6.8352
    5.145    7.0037
    5.280    6.9721
    5.415    7.9200
    5.550    6.7825
    5.685    5.5082
    5.820    5.4766
    5.955    5.9505
    6.090    5.7609
    6.225    5.8978
    6.360    6.0242
    6.495    6.4666
    6.630    7.3618
    6.765    9.3102
    6.900   12.3433
    7.035   11.4376
    7.170    7.4671
    7.305    6.1085
    7.440    6.2981
    7.575    6.8036
    7.710    7.1617
    7.845    8.0147
    7.980    8.2149
    8.115    8.0358
    8.250    7.7620
    8.385    7.1406
    8.520    6.6561
    8.655    6.3928
    8.790    5.6556
    8.925    5.8557
    9.060    5.6767
    9.195    5.5714
    9.330    5.2133
    9.465    5.5503
    9.600    5.5503
    9.735    5.0553
    9.870    5.2027
   10.005    5.4555
   10.140    5.0132
   10.275    5.3712
   10.410    5.5187
   10.545    5.6556
   10.680    5.0132
   10.815    5.1395
   10.950    5.2238
   11.085    5.3291
   11.220    5.2449
   11.355    5.0658
   11.490    5.3186
   11.625    5.2133
   11.760    5.2027
   11.895    5.1395
   12.030    5.3186
   12.165    5.1080
   12.300    4.9605
   12.435    5.4450
   12.570    5.0764
   12.705    5.5082
   12.840    5.1606
   12.975    5.2554
   13.110    5.3081
   13.245    4.9394
   13.380    4.9710
   13.515    5.0764
   13.650    5.1395
   13.785    5.1606
   13.920    5.0132
   14.055    5.3186
   14.190    4.9710
   14.325    4.8868
   14.460    4.8341
   14.595    5.1080
   14.730    4.9394
   14.865    4.8236
   15.000    4.5498
   15.135    4.6551
   15.270    4.9500
   15.405    4.6340
   15.540    4.8973
   15.675    4.9500
   15.810    5.0869
   15.945    4.8236
   16.080    4.9289
   16.215    4.7815
   16.350    5.0764
   16.485    4.6761
   16.620    4.8552
   16.755    4.7288
   16.890    5.0553
   17.025    4.7077
   17.160    4.6445
   17.295    4.7393
   17.430    5.0658
   17.565    4.6867
   17.700    4.9184
   17.835    4.7077
   17.970    5.0237
   18.105    4.9078
   18.240    4.6656
   18.375    4.7393
   18.510    5.0553
   18.645    5.0658
   18.780    4.7499
   18.915    5.0974
   19.050    5.3081
   19.185    5.2765
   19.320    4.9605
   19.455    4.9710
   19.590    5.2238
   19.725    5.2343
   19.860    5.0026
   19.995    5.0237
   20.130    5.4344
   20.265    5.0132
   20.400    5.6451
   20.535    5.4660
   20.670    5.1290
   20.805    5.2765
   20.940    5.2554
   21.075    5.2659
   21.210    5.2133
   21.345    5.2659
   21.480    5.8978
   21.615    5.1711
   21.750    5.2765
   21.885    5.6345
   22.020    5.0869
   22.155    5.3923
   22.290    5.0342
   22.425    5.1395
   22.560    5.2659
   22.695    5.1080
   22.830    5.4450
   22.965    5.1501
   23.100    5.2027
   23.235    4.9078
   23.370    4.8973
   23.505    5.2343
   23.640    5.2238
   23.775    4.9605
   23.910    5.0132
   24.045    5.6451
   24.180    5.2554
   24.315    4.8447
   24.450    4.9816
   24.585    5.0658
   24.720    4.9289
   24.855    5.2765
   24.990    5.0026
   25.125    4.9710
   25.260    4.6445
   25.395    4.8868
   25.530    4.6867
   25.665    4.7709
   25.800    4.6551
   25.935    4.6761
   26.070    4.4655
   26.205    4.7920
   26.340    4.8868
   26.475    4.6551
   26.610    4.7815
   26.745    4.7709
   26.880    4.7604
   27.015    4.4128
   27.150    4.8025
   27.285    4.4866
   27.420    4.4550
   27.555    4.3497
   27.690    4.6445
   27.825    4.2654
   27.960    4.4023
   28.095    4.6340
   28.230    4.5498
   28.365    4.6551
   28.500    4.3602
   28.635    4.6656
   28.770    4.1390
   28.905    4.4444
   29.040    4.2865
   29.175    4.5814
   29.310    4.2338
   29.445    4.0864
   29.580    4.0337
   29.715    4.3391
   29.850    4.2022
   29.985    4.5076
   30.120    4.0232
   30.255    4.2970
   30.390    4.0337
   30.525    4.1074
   30.660    4.0548
   30.795    4.3075
   30.930    3.8863
   31.065    3.9389
   31.200    3.7809
   31.335    4.3391
   31.470    4.0864
   31.605    4.1180
   31.740    4.2338
   31.875    4.2865
   32.010    4.6340
   32.145    4.6656
   32.280    3.9179
   32.415    4.4234
   32.550    3.6756
   32.685    3.8547
   32.820    3.7809
   32.955    4.0021
   33.090    3.9179
   33.225    3.5808
   33.360    3.9179
   33.495    3.5914
   33.630    3.8652
   33.765    3.7809
   33.900    3.4966
   34.035    3.8336
   34.170    3.4966
   34.305    3.6230
   34.440    3.5598
   34.575    3.7283
   34.710    3.4229
   34.845    3.5914
   34.980    3.3491
   35.115    3.4439
   35.250    3.3913
   35.385    3.6124
   35.520    3.7388
   35.655    3.2017
   35.790    3.4018
   35.925    3.3702
   36.060    3.3702
   36.195    3.1596
   36.330    3.5176
   36.465    3.3597
   36.600    3.4860
   36.735    3.3491
   36.870    3.3281
   37.005    3.1490
   37.140    3.4334
   37.275    3.7283
   37.410    3.0964
   37.545    3.0648
   37.680    3.1174
   37.815    3.3070
   37.950    3.2649
   38.085    3.2333
   38.220    3.1385
   38.355    3.2754
   38.490    3.0121
   38.625    3.3070
   38.760    3.2227
   38.895    3.2017
   39.030    3.2017
   39.165    3.3386
   39.300    3.2543
   39.435    3.1069
   39.570    3.3807
   39.705    2.8436
   39.840    3.0964
   39.975    2.8857
   39.990    2.9279