File: data/PXRD/PXRD_KE-272MS_Cu-Ka1_film-3mm_3s-deg.xyd
    1.500   11.7957
    1.635   10.6898
    1.770   10.3037
    1.905    9.8122
    2.040    9.5489
    2.175    9.2856
    2.310    8.7941
    2.445    7.7234
    2.580    7.6883
    2.715    8.2675
    2.850    7.5127
    2.985    7.4250
    3.120    7.2143
    3.255    7.6532
    3.390    7.5478
    3.525    7.6707
    3.660    7.7409
    3.795    7.4952
    3.930    7.4952
    4.065    7.4074
    4.200    7.9516
    4.335    7.3196
    4.470    7.4952
    4.605    7.4250
    4.740    8.1622
    4.875    8.5308
    5.010    9.0398
    5.145    9.0750
    5.280   10.0404
    5.415   10.6898
    5.550   10.4265
    5.685   10.2335
    5.820    8.8468
    5.955    8.1095
    6.090    7.9516
    6.225    7.6532
    6.360    7.0915
    6.495    7.6707
    6.630    6.3718
    6.765    6.4420
    6.900    6.4069
    7.035    7.0388
    7.170    6.2138
    7.305    5.8978
    7.440    5.8978
    7.575    5.5819
    7.710    5.1957
    7.845    5.3712
    7.980    4.6340
    8.115    4.8622
    8.250    4.4936
    8.385    4.1074
    8.520    4.3707
    8.655    4.7920
    8.790    4.3181
    8.925    4.3181
    9.060    4.8447
    9.195    4.2478
    9.330    4.4585
    9.465    4.3707
    9.600    4.0723
    9.735    4.5989
    9.870    4.4760
   10.005    4.7218
   10.140    4.8973
   10.275    4.1952
   10.410    4.3532
   10.545    4.8271
   10.680    4.5463
   10.815    4.7920
   10.950    4.6867
   11.085    4.7569
   11.220    4.7569
   11.355    4.8622
   11.490    5.0202
   11.625    4.2127
   11.760    4.1601
   11.895    4.3883
   12.030    4.1776
   12.165    4.2478
   12.300    4.7569
   12.435    4.7393
   12.570    4.3532
   12.705    4.4409
   12.840    4.2303
   12.975    4.0021
   13.110    4.1425
   13.245    4.4234
   13.380    4.1776
   13.515    4.2830
   13.650    3.9494
   13.785    4.5287
   13.920    4.8271
   14.055    4.6867
   14.190    4.8973
   14.325    5.1782
   14.460    4.9851
   14.595    4.6340
   14.730    4.4760
   14.865    4.1250
   15.000    4.1776
   15.135    4.1776
   15.270    3.9319
   15.405    4.1074
   15.540    3.7388
   15.675    4.4936
   15.810    4.4760
   15.945    4.5463
   16.080    4.2127
   16.215    3.9846
   16.350    3.9846
   16.485    4.4409
   16.620    4.2830
   16.755    4.7042
   16.890    4.2303
   17.025    4.1952
   17.160    4.2127
   17.295    4.0372
   17.430    3.9143
   17.565    4.2303
   17.700    3.7739
   17.835    3.8441
   17.970    4.3181
   18.105    4.0899
   18.240    4.4585
   18.375    3.9670
   18.510    3.9670
   18.645    4.0197
   18.780    4.4058
   18.915    4.1601
   19.050    4.0372
   19.185    3.9494
   19.320    4.1952
   19.455    3.5633
   19.590    4.3356
   19.725    3.3351
   19.860    3.8266
   19.995    3.5282
   20.130    3.7037
   20.265    3.4229
   20.400    3.6862
   20.535    3.4053
   20.670    3.4931
   20.805    3.3000
   20.940    3.4580
   21.075    3.4931
   21.210    3.8968
   21.345    3.6510
   21.480    3.7915
   21.615    4.2127
   21.750    3.4931
   21.885    3.3351
   22.020    3.3702
   22.155    3.5808
   22.290    3.4053
   22.425    3.4229
   22.560    3.3000
   22.695    3.3702
   22.830    3.1596
   22.965    3.2473
   23.100    3.1947
   23.235    3.5282
   23.370    3.3877
   23.505    3.1245
   23.640    3.2122
   23.775    3.2298
   23.910    3.8968
   24.045    2.9840
   24.180    2.7734
   24.315    3.0016
   24.450    2.7383
   24.585    3.0542
   24.720    2.9138
   24.855    2.8787
   24.990    2.9314
   25.125    2.7558
   25.260    2.9489
   25.395    2.4750
   25.530    3.1771
   25.665    2.4750
   25.800    2.4750
   25.935    2.7909
   26.070    3.2473
   26.205    2.7558
   26.340    2.6505
   26.475    2.7032
   26.610    2.7909
   26.745    2.6856
   26.880    2.5276
   27.015    3.1245
   27.150    2.5628
   27.285    2.2117
   27.420    2.3521
   27.555    2.5979
   27.690    2.3170
   27.825    2.4925
   27.960    2.5979
   28.095    2.3872
   28.230    2.4750
   28.365    2.3697
   28.500    2.1941
   28.635    2.5979
   28.770    2.1415
   28.905    2.4574
   29.040    2.2819
   29.175    2.3697
   29.310    2.3521
   29.445    2.1239
   29.580    2.2117
   29.715    1.9659
   29.850    2.5628
   29.985    2.2117
   30.120    2.1766
   30.255    2.0011
   30.390    2.0713
   30.525    1.8431
   30.660    1.8957
   30.795    2.1590
   30.930    2.1941
   31.065    1.8255
   31.200    1.8431
   31.335    1.7378
   31.470    1.7553
   31.605    1.7729
   31.740    1.8255
   31.875    1.8431
   32.010    1.7904
   32.145    1.4745
   32.280    1.6324
   32.415    1.7027
   32.550    1.9308
   32.685    1.5798
   32.820    1.6149
   32.955    1.4745
   33.090    1.6324
   33.225    1.5798
   33.360    1.3516
   33.495    1.7027
   33.630    1.4569
   33.765    1.5271
   33.900    1.6324
   34.035    1.2989
   34.170    1.7027
   34.305    1.3867
   34.440    1.5271
   34.575    1.5973
   34.710    1.4569
   34.845    1.3691
   34.980    1.3691
   35.115    1.5271
   35.250    1.1410
   35.385    1.4394
   35.520    1.3516
   35.655    1.4042
   35.790    1.4920
   35.925    1.3516
   36.060    1.5622
   36.195    1.3165
   36.330    1.3691
   36.465    1.4569
   36.600    1.4218
   36.735    1.2814
   36.870    1.4569
   37.005    1.2989
   37.140    1.4218
   37.275    1.4394
   37.410    1.1761
   37.545    1.3165
   37.680    1.3340
   37.815    1.2814
   37.950    1.2287
   38.085    1.3867
   38.220    1.2463
   38.355    1.1234
   38.490    1.2287
   38.625    1.1761
   38.760    1.2989
   38.895    1.1936
   39.030    1.3516
   39.165    1.3165
   39.300    1.2814
   39.435    1.2287
   39.570    1.3516
   39.705    1.2287
   39.840    0.9830
   39.975    1.0356
   39.990    1.0883