File: data/PXRD/PXRD_Blank_Cu-Ka1_film-3mm_3s-deg.xyd
    1.500    3.3526
    1.665    2.8787
    1.830    2.6154
    1.995    2.3170
    2.160    2.4750
    2.325    2.6505
    2.490    2.1239
    2.655    2.2292
    2.820    2.0186
    2.985    2.3872
    3.150    2.0362
    3.315    1.8606
    3.480    1.8255
    3.645    2.1064
    3.810    2.1766
    3.975    1.9484
    4.140    1.8957
    4.305    2.2117
    4.470    2.4750
    4.635    1.9835
    4.800    2.3346
    4.965    2.3872
    5.130    2.5101
    5.295    2.8436
    5.460    2.5101
    5.625    3.0367
    5.790    2.1064
    5.955    2.3872
    6.120    2.1415
    6.285    2.1064
    6.450    1.9835
    6.615    2.0186
    6.780    2.1064
    6.945    1.5271
    7.110    1.9484
    7.275    1.6149
    7.440    1.7202
    7.605    1.5798
    7.770    1.2287
    7.935    1.3340
    8.100    1.2287
    8.265    1.3691
    8.430    1.3691
    8.595    1.3165
    8.760    1.4218
    8.925    1.1058
    9.090    1.3867
    9.255    1.0181
    9.420    1.0707
    9.585    1.1234
    9.750    1.4920
    9.915    1.3516
   10.080    1.1585
   10.245    1.1234
   10.410    1.4745
   10.575    1.2814
   10.740    1.5096
   10.905    1.1761
   11.070    1.2814
   11.235    1.2463
   11.400    1.1761
   11.565    1.3516
   11.730    1.2638
   11.895    1.2112
   12.060    1.4920
   12.225    1.3340
   12.390    1.1761
   12.555    1.2638
   12.720    1.3340
   12.885    1.1761
   13.050    1.0005
   13.215    1.1410
   13.380    1.4042
   13.545    1.3340
   13.710    1.1410
   13.875    1.2989
   14.040    1.1410
   14.205    1.2463
   14.370    1.4394
   14.535    1.4042
   14.700    1.3165
   14.865    1.3867
   15.030    1.1410
   15.195    1.2463
   15.360    1.2814
   15.525    0.9654
   15.690    1.0883
   15.855    1.0707
   16.020    1.0532
   16.185    1.0181
   16.350    1.2112
   16.515    1.2112
   16.680    1.1761
   16.845    1.2463
   17.010    1.1058
   17.175    1.3691
   17.340    1.1410
   17.505    1.1058
   17.670    1.0181
   17.835    1.1936
   18.000    1.2638
   18.165    1.0532
   18.330    1.1761
   18.495    1.0356
   18.660    1.1585
   18.825    1.0181
   18.990    1.0356
   19.155    1.1585
   19.320    1.1936
   19.485    1.1410
   19.650    0.8777
   19.815    1.0707
   19.980    1.0181
   20.145    1.1761
   20.310    1.0707
   20.475    1.0532
   20.640    0.9128
   20.805    0.9303
   20.970    0.9830
   21.135    1.1410
   21.300    1.1761
   21.465    0.8250
   21.630    0.9830
   21.795    0.8952
   21.960    0.9303
   22.125    0.9128
   22.290    0.9830
   22.455    1.0005
   22.620    0.6846
   22.785    0.8777
   22.950    1.0707
   23.115    1.0005
   23.280    0.8074
   23.445    0.8952
   23.610    0.9479
   23.775    0.9303
   23.940    0.7723
   24.105    0.8777
   24.270    0.9830
   24.435    0.7899
   24.600    0.7899
   24.765    0.7899
   24.930    0.7197
   25.095    0.7899
   25.260    0.7021
   25.425    0.8074
   25.590    0.6495
   25.755    0.9830
   25.920    0.8074
   26.085    0.7899
   26.250    0.6495
   26.415    0.6670
   26.580    0.6495
   26.745    0.6144
   26.910    0.6670
   27.075    0.7021
   27.240    0.5793
   27.405    0.6670
   27.570    0.7372
   27.735    0.6670
   27.900    0.6670
   28.065    0.7021
   28.230    0.7548
   28.395    0.6846
   28.560    0.7021
   28.725    0.5968
   28.890    0.5441
   29.055    0.7021
   29.220    0.5441
   29.385    0.5793
   29.550    0.6319
   29.715    0.7548
   29.880    0.5266
   30.045    0.4915
   30.210    0.6846
   30.375    0.6670
   30.540    0.5441
   30.705    0.3862
   30.870    0.4564
   31.035    0.4739
   31.200    0.4388
   31.365    0.4739
   31.530    0.4388
   31.695    0.5441
   31.860    0.6144
   32.025    0.4564
   32.190    0.4388
   32.355    0.3686
   32.520    0.4564
   32.685    0.3862
   32.850    0.4739
   33.015    0.5617
   33.180    0.4388
   33.345    0.3686
   33.510    0.4739
   33.675    0.3160
   33.840    0.4915
   34.005    0.5090
   34.170    0.4037
   34.335    0.4037
   34.500    0.3686
   34.665    0.5090
   34.830    0.4564
   34.995    0.4037
   35.160    0.3686
   35.325    0.4213
   35.490    0.3511
   35.655    0.3511
   35.820    0.4915
   35.985    0.3686
   36.150    0.3686
   36.315    0.4213
   36.480    0.3160
   36.645    0.4388
   36.810    0.4388
   36.975    0.3335
   37.140    0.3511
   37.305    0.2457
   37.470    0.3335
   37.635    0.2808
   37.800    0.3160
   37.965    0.3511
   38.130    0.3511
   38.295    0.2984
   38.460    0.4388
   38.625    0.3335
   38.790    0.2984
   38.955    0.2633
   39.120    0.3160
   39.285    0.4213
   39.450    0.2633
   39.615    0.2633
   39.780    0.3160
   39.945    0.3686
   40.110    0.3862
   40.275    0.2808
   40.440    0.3160
   40.605    0.2282
   40.770    0.4213
   40.935    0.2984
   41.100    0.4213
   41.265    0.3335
   41.430    0.3335
   41.595    0.3335
   41.760    0.2808
   41.925    0.2808
   42.090    0.3160
   42.255    0.3335
   42.420    0.4213
   42.585    0.3862
   42.750    0.3686
   42.915    0.3160
   43.080    0.3160
   43.245    0.3335
   43.410    0.2808
   43.575    0.4388
   43.740    0.3511
   43.905    0.2633
   44.070    0.2457
   44.235    0.3511
   44.400    0.3160
   44.565    0.3335
   44.730    0.4037
   44.895    0.3160
   45.060    0.3686
   45.225    0.3335
   45.390    0.3335
   45.555    0.4037
   45.720    0.2808
   45.885    0.2457
   46.050    0.2282
   46.215    0.2106
   46.380    0.2457
   46.545    0.2808
   46.710    0.3862
   46.875    0.3335
   47.040    0.2633
   47.205    0.2282
   47.370    0.2984
   47.535    0.3160
   47.700    0.2457
   47.865    0.3160
   48.030    0.2457
   48.195    0.1580
   48.360    0.2457
   48.525    0.2106
   48.690    0.2457
   48.855    0.2282
   49.020    0.2984
   49.185    0.2282
   49.350    0.2457
   49.515    0.2808
   49.680    0.3160
   49.845    0.1580
   49.980    0.1931