File: data/PXRD/PXRD_KE-121_Cu-Ka1_capillary-1mm_5s-deg.xyd
    1.500   13.4176
    1.635   12.5434
    1.770   11.7746
    1.905   10.4897
    2.040   10.1316
    2.175    9.4471
    2.310    9.1838
    2.445    9.3523
    2.580    9.1311
    2.715    9.7209
    2.850    9.7630
    2.985    9.7420
    3.120   10.3002
    3.255   10.8162
    3.390   12.0379
    3.525   12.8489
    3.660   16.6719
    3.795   23.6335
    3.930   22.9805
    4.065    9.0469
    4.200    8.6572
    4.335    8.3096
    4.470    8.2149
    4.605    8.0885
    4.740    8.0358
    4.875    8.6783
    5.010    8.1938
    5.145    8.9205
    5.280    9.6156
    5.415   10.5003
    5.550   10.6793
    5.685    8.1833
    5.820    8.0147
    5.955    8.0569
    6.090    7.5724
    6.225    7.5619
    6.360    7.5724
    6.495    8.1833
    6.630    8.1095
    6.765    8.1306
    6.900    7.8462
    7.035    7.8989
    7.170    7.7093
    7.305    7.8462
    7.440    8.5940
    7.575    8.2359
    7.710    8.8362
    7.845    8.9205
    7.980    8.3412
    8.115    7.9937
    8.250    8.6256
    8.385    8.5097
    8.520    8.3728
    8.655    8.5097
    8.790    8.4150
    8.925    8.5519
    9.060    8.6361
    9.195    8.8468
    9.330    9.4787
    9.465    9.3207
    9.600   10.8162
    9.735    9.1522
    9.870    8.6467
   10.005    9.0258
   10.140    8.8678
   10.275    9.4155
   10.410    8.8152
   10.545    8.3096
   10.680    9.0153
   10.815    8.5835
   10.950    9.0153
   11.085    9.1101
   11.220    8.2886
   11.355    8.4571
   11.490    7.9516
   11.625    7.9726
   11.760    8.8468
   11.895    8.1727
   12.030    8.1095
   12.165    7.6672
   12.300    7.7725
   12.435    7.9726
   12.570    7.4671
   12.705    7.2143
   12.840    7.4460
   12.975    8.0042
   13.110    7.4671
   13.245    7.7830
   13.380    7.4144
   13.515    7.5197
   13.650    7.4987
   13.785    7.2880
   13.920    7.8041
   14.055    7.4987
   14.190    7.5092
   14.325    7.6777
   14.460    7.6145
   14.595    7.1511
   14.730    7.4671
   14.865    7.3196
   15.000    7.5724
   15.135    7.4671
   15.270    7.7936
   15.405    7.5935
   15.540    7.5724
   15.675    7.7514
   15.810    7.5197
   15.945    7.7620
   16.080    7.9410
   16.215    7.9516
   16.350    7.8357
   16.485    7.5619
   16.620    8.1306
   16.755    7.7304
   16.890    7.5724
   17.025    7.9410
   17.160    8.2464
   17.295    7.9305
   17.430    7.8778
   17.565    7.6777
   17.700    7.6145
   17.835    7.3934
   17.970    7.8146
   18.105    7.4355
   18.240    7.3196
   18.375    7.3407
   18.510    7.7514
   18.645    7.6988
   18.780    7.6567
   18.915    8.1411
   19.050    8.2991
   19.185    7.6567
   19.320    7.9200
   19.455    7.9726
   19.590    8.2780
   19.725    7.7725
   19.860    7.6672
   19.995    8.3623
   20.130    7.6988
   20.265    7.9937
   20.400    8.3623
   20.535    8.0885
   20.670    7.8041
   20.805    8.2886
   20.940    7.6672
   21.075    7.5513
   21.210    7.8357
   21.345    7.8989
   21.480    7.7725
   21.615    8.2886
   21.750    7.9200
   21.885    8.2464
   22.020    8.6783
   22.155    8.2886
   22.290    8.0463
   22.425    8.1095
   22.560    8.2359
   22.695    8.1833
   22.830    8.3202
   22.965    8.2570
   23.100    8.5097
   23.235    7.9516
   23.370    8.4360
   23.505    8.4044
   23.640    7.5303
   23.775    7.9516
   23.910    8.0463
   24.045    8.1306
   24.180    7.8778
   24.315    7.6251
   24.450    8.0463
   24.585    7.3407
   24.720    7.3828
   24.855    7.5829
   24.990    7.7304
   25.125    7.6672
   25.260    7.6356
   25.395    8.0042
   25.530    7.9726
   25.665    7.7199
   25.800    7.2986
   25.935    7.5303
   26.070    7.5092
   26.205    7.5092
   26.340    7.7830
   26.475    7.5724
   26.610    7.3196
   26.745    7.6356
   26.880    7.4671
   27.015    6.8984
   27.150    7.4776
   27.285    7.2249
   27.420    6.8457
   27.555    7.3302
   27.690    7.2775
   27.825    6.9300
   27.960    7.5935
   28.095    7.5619
   28.230    7.4460
   28.365    7.0563
   28.500    7.4987
   28.635    7.3828
   28.770    7.2565
   28.905    7.2038
   29.040    7.6145
   29.175    6.7615
   29.310    6.7193
   29.445    6.9721
   29.580    6.9826
   29.715    7.3934
   29.850    6.9616
   29.985    6.6140
   30.120    6.9932
   30.255    6.3402
   30.390    6.8668
   30.525    6.6245
   30.660    6.7720
   30.795    6.7193
   30.930    6.8352
   31.065    6.6877
   31.200    6.5298
   31.335    6.0874
   31.470    6.4982
   31.605    6.1927
   31.740    6.3507
   31.875    6.7193
   32.010    6.8878
   32.145    7.5197
   32.280    5.8978
   32.415    6.4244
   32.550    6.4244
   32.685    6.2981
   32.820    6.2138
   32.955    6.5719
   33.090    6.4560
   33.225    6.1190
   33.360    6.1717
   33.495    6.3402
   33.630    6.4139
   33.765    7.0037
   33.900    6.3612
   34.035    6.4139
   34.170    6.0664
   34.305    5.8136
   34.440    6.1822
   34.575    6.2770
   34.710    6.3402
   34.845    6.2454
   34.980    5.6240
   35.115    5.7715
   35.250    5.7925
   35.385    5.9926
   35.520    5.8241
   35.655    5.6977
   35.790    5.7820
   35.925    5.9505
   36.060    5.7188
   36.195    5.7293
   36.330    5.9821
   36.465    5.9400
   36.600    5.6240
   36.735    6.1085
   36.870    6.0874
   37.005    5.9294
   37.140    5.9400
   37.275    5.8557
   37.410    6.0874
   37.545    5.6135
   37.680    6.2454
   37.815    5.9926
   37.950    5.8768
   38.085    5.9189
   38.220    5.5398
   38.355    5.9189
   38.490    5.7925
   38.625    6.3823
   38.760    5.9505
   38.895    5.7083
   39.030    5.8873
   39.165    5.8662
   39.300    5.9821
   39.435    5.6661
   39.570    5.8452
   39.705    5.9716
   39.840    5.7504
   39.975    5.7925
   39.990    5.5082