File: data/PXRD/PXRD_KE-200_Cu-Ka1_capillary-1mm_5s-deg.xyd
    1.500    9.0363
    1.635    7.7409
    1.770    7.4776
    1.905    6.6245
    2.040    6.1717
    2.175    5.2133
    2.310    5.4660
    2.445    6.0664
    2.580    5.6977
    2.715    6.8562
    2.850    9.3523
    2.985   12.3855
    3.120   18.6835
    3.255   31.6588
    3.390   58.5571
    3.525   37.3460
    3.660   17.7567
    3.795   18.7572
    3.930   22.4961
    4.065   24.5708
    4.200   18.6203
    4.335   11.1638
    4.470    6.6561
    4.605    5.0342
    4.740    4.2127
    4.875    3.7809
    5.010    3.6230
    5.145    3.2017
    5.280    3.2543
    5.415    2.8331
    5.550    2.8541
    5.685    2.8963
    5.820    2.6540
    5.955    2.4645
    6.090    2.8015
    6.225    2.5382
    6.360    2.7909
    6.495    2.6330
    6.630    3.3807
    6.765    4.8447
    6.900    7.9831
    7.035    5.5924
    7.170    3.4860
    7.305    2.9910
    7.440    2.9700
    7.575    2.7593
    7.710    3.1280
    7.845    3.2649
    7.980    3.8652
    8.115    3.9389
    8.250    4.1390
    8.385    3.9916
    8.520    3.7915
    8.655    3.3175
    8.790    3.0542
    8.925    3.0226
    9.060    2.8857
    9.195    2.7278
    9.330    2.4645
    9.465    2.4855
    9.600    2.5487
    9.735    2.4645
    9.870    2.4329
   10.005    2.4539
   10.140    2.6646
   10.275    2.5171
   10.410    2.8436
   10.545    2.6856
   10.680    2.4434
   10.815    2.3170
   10.950    2.2749
   11.085    2.3591
   11.220    2.3170
   11.355    2.3907
   11.490    2.6014
   11.625    2.3802
   11.760    2.5487
   11.895    2.2643
   12.030    2.4118
   12.165    2.7488
   12.300    2.5698
   12.435    2.6014
   12.570    2.6330
   12.705    2.5803
   12.840    2.7172
   12.975    2.4750
   13.110    2.4118
   13.245    2.4750
   13.380    2.3802
   13.515    2.4855
   13.650    2.4855
   13.785    2.4750
   13.920    2.5803
   14.055    2.5276
   14.190    2.2433
   14.325    2.6224
   14.460    2.3591
   14.595    2.2433
   14.730    2.3170
   14.865    2.4223
   15.000    2.3170
   15.135    2.4013
   15.270    2.3381
   15.405    2.4855
   15.540    2.3381
   15.675    2.2854
   15.810    2.5171
   15.945    2.6014
   16.080    2.5908
   16.215    2.3065
   16.350    2.2749
   16.485    2.4118
   16.620    2.3170
   16.755    2.3170
   16.890    2.3697
   17.025    2.6435
   17.160    2.1906
   17.295    2.3275
   17.430    2.4434
   17.565    2.2749
   17.700    2.3697
   17.835    2.5592
   17.970    2.6119
   18.105    2.2328
   18.240    2.3697
   18.375    2.2328
   18.510    2.4855
   18.645    2.3591
   18.780    2.4013
   18.915    2.5276
   19.050    2.6119
   19.185    2.4645
   19.320    2.5066
   19.455    2.4855
   19.590    2.4329
   19.725    2.5698
   19.860    2.7067
   19.995    2.5171
   20.130    2.7488
   20.265    2.8963
   20.400    2.6540
   20.535    2.4750
   20.670    2.9805
   20.805    2.6962
   20.940    2.8225
   21.075    2.6646
   21.210    2.6962
   21.345    2.7067
   21.480    2.5171
   21.615    2.6014
   21.750    2.4118
   21.885    2.4329
   22.020    2.5592
   22.155    2.8015
   22.290    2.6540
   22.425    2.6540
   22.560    2.7593
   22.695    2.6751
   22.830    2.4329
   22.965    2.4961
   23.100    2.6751
   23.235    2.4223
   23.370    2.7593
   23.505    2.6014
   23.640    2.4645
   23.775    2.4645
   23.910    2.3381
   24.045    2.8331
   24.180    2.4434
   24.315    2.5066
   24.450    2.2433
   24.585    2.6014
   24.720    2.5592
   24.855    2.5803
   24.990    2.2854
   25.125    2.4223
   25.260    2.2117
   25.395    2.7172
   25.530    2.4329
   25.665    2.5698
   25.800    2.3381
   25.935    2.2643
   26.070    2.3170
   26.205    2.1906
   26.340    2.1590
   26.475    2.3170
   26.610    2.2012
   26.745    2.2538
   26.880    2.4855
   27.015    2.2643
   27.150    2.0116
   27.285    2.2012
   27.420    2.2433
   27.555    2.3065
   27.690    2.1590
   27.825    2.4750
   27.960    1.9800
   28.095    2.2538
   28.230    2.1906
   28.365    2.1169
   28.500    2.1590
   28.635    2.2749
   28.770    2.2959
   28.905    2.2012
   29.040    2.3065
   29.175    1.9695
   29.310    2.0432
   29.445    2.3486
   29.580    2.2012
   29.715    2.3381
   29.850    1.8957
   29.985    2.0221
   30.120    1.8747
   30.255    2.0432
   30.390    2.0958
   30.525    1.9168
   30.660    1.9800
   30.795    1.9695
   30.930    2.2433
   31.065    2.0537
   31.200    1.7799
   31.335    1.9800
   31.470    2.1064
   31.605    2.2012
   31.740    2.0748
   31.875    2.0221
   32.010    1.6956
   32.145    2.0011
   32.280    2.0326
   32.415    2.1064
   32.550    1.6640
   32.685    1.9589
   32.820    1.9695
   32.955    1.9379
   33.090    1.8115
   33.225    1.8325
   33.360    1.8536
   33.495    2.0116
   33.630    1.9695
   33.765    2.0326
   33.900    1.9168
   34.035    1.8115
   34.170    1.7062
   34.305    1.9063
   34.440    1.5692
   34.575    1.5692
   34.710    1.7483
   34.845    1.8852
   34.980    1.7167
   35.115    1.5903
   35.250    1.6430
   35.385    1.5798
   35.520    1.6851
   35.655    1.6956
   35.790    1.4429
   35.925    1.5903
   36.060    1.6324
   36.195    1.6114
   36.330    1.5692
   36.465    1.6219
   36.600    1.7378
   36.735    1.6219
   36.870    1.6114
   37.005    1.6430
   37.140    1.8747
   37.275    1.6324
   37.410    1.5587
   37.545    1.5692
   37.680    1.4534
   37.815    1.4639
   37.950    1.5798
   38.085    1.4745
   38.220    1.4745
   38.355    1.6008
   38.490    1.5482
   38.625    1.4850
   38.760    1.3797
   38.895    1.4639
   39.030    1.4850
   39.165    1.5798
   39.300    1.3797
   39.435    1.5377
   39.570    1.6008
   39.705    1.4745
   39.840    1.4955
   39.975    1.3691
   39.990    1.5271