File: data/PXRD/PXRD_KE-017_Cu-Ka1_capillary-1mm_5s-deg.xyd
    1.500   33.2280
    1.635   28.8678
    1.770   25.1290
    1.905   21.6956
    2.040   19.8947
    2.175   18.5466
    2.310   17.8515
    2.445   15.6714
    2.580   15.6503
    2.715   14.5761
    2.850   13.7230
    2.985   12.7330
    3.120   12.7436
    3.255   11.9642
    3.390   11.6798
    3.525   11.5956
    3.660   11.3428
    3.795   10.7952
    3.930   10.5951
    4.065   10.0579
    4.200   10.9005
    4.335   10.1738
    4.470   10.1632
    4.605    9.8262
    4.740   10.0053
    4.875   10.0685
    5.010    9.8262
    5.145    9.4050
    5.280   10.3002
    5.415    9.6788
    5.550   10.2370
    5.685   10.5529
    5.820   10.8794
    5.955   11.0374
    6.090   13.9442
    6.225   11.3849
    6.360    9.4787
    6.495    9.0574
    6.630    9.0469
    6.765    9.2259
    6.900    8.9837
    7.035    8.7730
    7.170    9.7736
    7.305    9.4365
    7.440    9.2364
    7.575    8.8573
    7.710    9.4997
    7.845    9.1732
    7.980    9.0153
    8.115    9.4681
    8.250    9.5524
    8.385    9.5419
    8.520    9.7209
    8.655    9.4050
    8.790    9.3523
    8.925    9.3102
    9.060    9.7314
    9.195   10.1316
    9.330   11.2796
    9.465   15.1237
    9.600   10.8689
    9.735   10.3528
    9.870    9.2364
   10.005    9.5524
   10.140    9.8578
   10.275    9.5945
   10.410    9.9210
   10.545   10.8373
   10.680   11.2480
   10.815   15.6082
   10.950   11.5219
   11.085   10.0790
   11.220    9.5313
   11.355    9.3312
   11.490    9.2364
   11.625    9.5313
   11.760   11.2796
   11.895    9.8157
   12.030    9.3628
   12.165    9.4155
   12.300    9.5840
   12.435    9.1417
   12.570    8.5729
   12.705    8.8046
   12.840    9.1206
   12.975    9.1838
   13.110   10.3423
   13.245    8.7520
   13.380    8.7520
   13.515    8.3518
   13.650    8.3834
   13.785    8.3939
   13.920    8.6783
   14.055    8.7836
   14.190    8.4676
   14.325    8.9100
   14.460    8.6993
   14.595    8.4360
   14.730    9.0469
   14.865    9.3523
   15.000    9.2575
   15.135    8.7309
   15.270    8.7414
   15.405    8.6256
   15.540    9.1732
   15.675    9.1732
   15.810    8.6045
   15.945    9.0363
   16.080    8.3518
   16.215    9.4892
   16.350    9.7314
   16.485    8.3307
   16.620    8.5835
   16.755    8.3939
   16.890    9.2996
   17.025    8.8889
   17.160    9.1311
   17.295    8.5519
   17.430    8.6045
   17.565    8.5624
   17.700    8.7520
   17.835    9.6788
   17.970   10.1843
   18.105    9.5208
   18.240    8.8468
   18.375    8.9205
   18.510    8.5624
   18.645    9.3839
   18.780    9.1943
   18.915    8.7098
   19.050    8.8784
   19.185    8.7520
   19.320    9.4260
   19.455    8.9100
   19.590    8.8257
   19.725    8.6151
   19.860    8.8362
   19.995    8.8362
   20.130    8.7836
   20.265    8.8152
   20.400    9.0995
   20.535    8.9100
   20.670    8.9837
   20.805    8.7520
   20.940    8.6256
   21.075    8.5624
   21.210    8.4571
   21.345    8.6256
   21.480    9.3839
   21.615    9.2470
   21.750    9.3734
   21.885    8.7836
   22.020    8.6572
   22.155    9.3102
   22.290    9.2154
   22.425    8.7941
   22.560    9.4050
   22.695    8.9100
   22.830    9.0153
   22.965    9.3207
   23.100    8.9731
   23.235    8.8889
   23.370    8.9521
   23.505    9.3312
   23.640    9.1732
   23.775    9.3944
   23.910    9.0785
   24.045    8.7941
   24.180    9.1732
   24.315    9.1943
   24.450    8.7520
   24.585    8.3939
   24.720    9.2891
   24.855    8.5940
   24.990    9.4365
   25.125    9.0785
   25.260    8.4150
   25.395    8.6572
   25.530    8.6045
   25.665    8.8678
   25.800    8.8994
   25.935    9.0574
   26.070    8.7414
   26.205    8.6361
   26.340    9.1943
   26.475    8.3096
   26.610    8.7625
   26.745    8.4466
   26.880    8.6888
   27.015    8.3623
   27.150    8.5413
   27.285    8.6045
   27.420    8.4360
   27.555    8.2886
   27.690    8.4887
   27.825    8.3307
   27.960    8.4571
   28.095    8.6572
   28.230    7.8568
   28.365    8.1201
   28.500    8.2780
   28.635    7.9410
   28.770    8.0569
   28.905    7.3828
   29.040    8.3728
   29.175    8.0147
   29.310    7.7936
   29.445    7.9726
   29.580    7.6145
   29.715    7.4355
   29.850    7.3196
   29.985    7.7514
   30.120    7.7830
   30.255    8.1517
   30.390    7.4460
   30.525    7.4671
   30.660    7.5197
   30.795    7.7304
   30.930    7.1617
   31.065    7.4144
   31.200    7.1301
   31.335    7.9516
   31.470    7.4776
   31.605    7.7409
   31.740    7.0879
   31.875    7.3302
   32.010    7.3512
   32.145    7.2354
   32.280    7.4039
   32.415    7.4566
   32.550    7.3934
   32.685    7.1827
   32.820    7.3091
   32.955    6.8036
   33.090    7.6145
   33.225    6.9300
   33.360    7.2880
   33.495    7.1511
   33.630    7.2459
   33.765    7.1617
   33.900    7.2354
   34.035    6.9405
   34.170    7.2038
   34.305    7.0669
   34.440    7.2565
   34.575    6.7825
   34.710    6.8878
   34.845    7.1722
   34.980    6.8141
   35.115    6.8773
   35.250    6.7299
   35.385    6.9616
   35.520    6.8878
   35.655    7.1090
   35.790    6.9089
   35.925    6.9194
   36.060    6.8352
   36.195    7.2670
   36.330    6.8773
   36.465    6.8984
   36.600    6.8984
   36.735    6.8668
   36.870    6.9089
   37.005    6.4560
   37.140    6.7930
   37.275    6.6772
   37.410    6.6456
   37.545    7.1933
   37.680    6.6877
   37.815    6.6772
   37.950    6.7299
   38.085    6.8773
   38.220    6.4876
   38.355    6.6035
   38.490    6.8246
   38.625    6.3402
   38.760    6.3402
   38.895    6.8984
   39.030    7.0774
   39.165    7.0458
   39.300    6.7615
   39.435    6.7404
   39.570    7.0458
   39.705    6.7930
   39.840    7.0563
   39.975    6.3402
   39.990    5.9926