File: data/PXRD/PXRD_KE-305-2D_Cu-Ka1_capillary-1mm_3s-deg.xyd
    1.500   21.2217
    1.635   18.4834
    1.770   17.1669
    1.905   15.5696
    2.040   14.2005
    2.175   14.2707
    2.310   13.1297
    2.445   12.9542
    2.580   12.8664
    2.715   14.2005
    2.850   15.6574
    2.985   18.3956
    3.120   20.8531
    3.255   25.9259
    3.390   33.0700
    3.525   44.1109
    3.660   68.6502
    3.795  149.8859
    3.930   23.2052
    4.065    8.5484
    4.200    7.4074
    4.335    7.1968
    4.470    6.6877
    4.605    6.5824
    4.740    7.4425
    4.875    8.1622
    5.010    8.6712
    5.145    9.5489
    5.280   12.8840
    5.415   24.2584
    5.550    8.7063
    5.685    6.2138
    5.820    6.4946
    5.955    5.5117
    6.090    5.9681
    6.225    6.6000
    6.360    5.8627
    6.495    6.7053
    6.630    8.4255
    6.765    8.2500
    6.900    6.0383
    7.035    6.0383
    7.170    6.3367
    7.305    6.0909
    7.440    6.1260
    7.575    7.4601
    7.710   10.3563
    7.845    6.3718
    7.980    5.8452
    8.115    5.9856
    8.250    5.5468
    8.385    5.3186
    8.520    6.0558
    8.655    6.2665
    8.790    5.4415
    8.925    5.7399
    9.060    6.2313
    9.195    6.5298
    9.330    8.9872
    9.465   17.2898
    9.600    9.1627
    9.735    5.6345
    9.870    5.7399
   10.005    6.7053
   10.140    7.1792
   10.275   12.5856
   10.410    5.8803
   10.545    5.3361
   10.680    5.7048
   10.815    5.9505
   10.950    8.4255
   11.085    6.7228
   11.220    5.4590
   11.355    5.1782
   11.490    6.1436
   11.625    9.4436
   11.760    7.5829
   11.895    4.9851
   12.030    5.1255
   12.165    5.2133
   12.300    5.7048
   12.435    5.4239
   12.570    5.4941
   12.705    6.2665
   12.840    7.2494
   12.975    8.9696
   13.110    5.0728
   13.245    5.2659
   13.380    5.9681
   13.515    8.1271
   13.650    5.0553
   13.785    5.5117
   13.920    5.7223
   14.055    7.8111
   14.190    5.1957
   14.325    4.5287
   14.460    4.6691
   14.595    4.9500
   14.730    4.7920
   14.865    4.5463
   15.000    5.2659
   15.135    6.1787
   15.270    5.6170
   15.405    5.2133
   15.540    5.0377
   15.675    5.0202
   15.810    4.9851
   15.945    5.2659
   16.080    6.4244
   16.215    5.1431
   16.350    5.0553
   16.485    5.8276
   16.620    6.6702
   16.755    5.4766
   16.890    5.9505
   17.025    8.8117
   17.160    5.2659
   17.295    5.3010
   17.430    5.9154
   17.565    5.1431
   17.700    4.8271
   17.835    4.9851
   17.970    5.6521
   18.105    4.9324
   18.240    5.3361
   18.375    6.3718
   18.510    5.4239
   18.645    5.4239
   18.780    5.4239
   18.915    5.1957
   19.050    5.3186
   19.185    5.8627
   19.320    5.8803
   19.455    5.3888
   19.590    7.4425
   19.725    5.5643
   19.860    5.3888
   19.995    5.6697
   20.130    5.7750
   20.265    6.3893
   20.400    8.4255
   20.535    5.5117
   20.670    5.5819
   20.805    5.7925
   20.940    5.3010
   21.075    5.2308
   21.210    5.3010
   21.345    5.5994
   21.480    5.6697
   21.615    5.8276
   21.750    6.1611
   21.885    6.8457
   22.020    5.4590
   22.155    5.9856
   22.290    6.1436
   22.425    6.5649
   22.560    9.5313
   22.695    5.8627
   22.830    7.5654
   22.965    7.4601
   23.100    6.1787
   23.235    7.1617
   23.370    5.7750
   23.505    5.9856
   23.640    5.8276
   23.775    5.6872
   23.910    7.3021
   24.045    5.5468
   24.180    5.5468
   24.315    5.5468
   24.450    6.1085
   24.585    5.8803
   24.720    5.2133
   24.855    6.0558
   24.990    5.4239
   25.125    6.1085
   25.260    6.2665
   25.395    6.1085
   25.530    6.1787
   25.665    5.7399
   25.800    8.8994
   25.935    5.8627
   26.070    5.6697
   26.205    5.5819
   26.340    6.0734
   26.475    5.9505
   26.610    5.2659
   26.745    5.4766
   26.880    5.3010
   27.015    6.6702
   27.150    5.2659
   27.285    5.3010
   27.420    5.3537
   27.555    6.6877
   27.690    5.3010
   27.825    5.8627
   27.960    5.4239
   28.095    5.9329
   28.230    6.5298
   28.365    6.1787
   28.500    6.0032
   28.635    5.1431
   28.770    5.0553
   28.905    5.3361
   29.040    5.8101
   29.175    5.2308
   29.310    5.7223
   29.445    4.7920
   29.580    4.8447
   29.715    4.8271
   29.850    4.7042
   29.985    4.8095
   30.120    4.8798
   30.255    5.1957
   30.390    5.1782
   30.525    5.2484
   30.660    5.0377
   30.795    4.8447
   30.930    4.6340
   31.065    4.4234
   31.200    5.0377
   31.335    4.9851
   31.470    4.8095
   31.605    4.9675
   31.740    4.8271
   31.875    4.6516
   32.010    4.7920
   32.145    4.3883
   32.280    4.4585
   32.415    4.5638
   32.550    4.4058
   32.685    4.4409
   32.820    4.8095
   32.955    4.5287
   33.090    4.1601
   33.225    4.1776
   33.360    4.4234
   33.495    4.2127
   33.630    4.5287
   33.765    4.4936
   33.900    4.9851
   34.035    4.6165
   34.170    4.3707
   34.305    4.0548
   34.440    3.9319
   34.575    4.2830
   34.710    3.8266
   34.845    4.5814
   34.980    4.0372
   35.115    4.2830
   35.250    4.6165
   35.385    3.8090
   35.520    3.9494
   35.655    4.3005
   35.790    3.9494
   35.925    3.7915
   36.060    4.1952
   36.195    3.8090
   36.330    3.7564
   36.465    4.2303
   36.600    4.0021
   36.735    4.9500
   36.870    3.7915
   37.005    3.9846
   37.140    4.2127
   37.275    3.9670
   37.410    3.8617
   37.545    3.9846
   37.680    3.6862
   37.815    4.1074
   37.950    4.0021
   38.085    3.7915
   38.220    3.8266
   38.355    3.7388
   38.490    3.5633
   38.625    4.1425
   38.760    3.7213
   38.895    3.9143
   39.030    3.7037
   39.165    3.2122
   39.300    4.0372
   39.435    3.7388
   39.570    3.7564
   39.705    3.5808
   39.840    3.5633
   39.975    3.1947
   39.990    3.4053