File: data/PXRD/PXRD_KE-053-2_Cu-Ka1_capillary-1mm_60s-deg.xyd
    1.500   40.2624
    1.635   37.2091
    1.770   34.4532
    1.905   32.0897
    2.040   29.6261
    2.175   28.2245
    2.310   27.1783
    2.445   26.4885
    2.580   26.7527
    2.715   27.4706
    2.850   29.0346
    2.985   31.9633
    3.120   36.4121
    3.255   43.4071
    3.390   55.3142
    3.525   72.5250
    3.660  100.0921
    3.795  166.5017
    3.930  334.5524
    4.065   16.7176
    4.200   12.5926
    4.335   11.6184
    4.470   11.2138
    4.605   11.5815
    4.740   11.8097
    4.875   12.7278
    5.010   14.4128
    5.145   17.3047
    5.280   23.0586
    5.415   35.9566
    5.550   72.1827
    5.685    9.5849
    5.820    8.7537
    5.955    8.5984
    6.090    8.6546
    6.225    8.8775
    6.360    9.3611
    6.495   10.3809
    6.630   12.6619
    6.765   22.3161
    6.900    8.4518
    7.035    8.1789
    7.170    7.9744
    7.305    8.2473
    7.440    8.8827
    7.575   10.0851
    7.710   13.2184
    7.845   22.8366
    7.980    7.8331
    8.115    7.5110
    8.250    7.3583
    8.385    7.4592
    8.520    7.5803
    8.655    7.7883
    8.790    8.4150
    8.925    7.4250
    9.060    7.7567
    9.195    8.6563
    9.330   10.9461
    9.465   17.1783
    9.600   40.1624
    9.735    7.7067
    9.870    7.3705
   10.005    7.5145
   10.140    8.2772
   10.275   11.5140
   10.410   13.8248
   10.545    7.0388
   10.680    7.0458
   10.815    7.8655
   10.950    9.5577
   11.085   16.5859
   11.220    6.9282
   11.355    7.0669
   11.490    7.7751
   11.625    9.6630
   11.760   17.5873
   11.895    6.8176
   12.030    6.6684
   12.165    6.7386
   12.300    7.2161
   12.435    7.9015
   12.570    6.5754
   12.705    6.8606
   12.840    7.8489
   12.975   12.7980
   13.110    6.9642
   13.245    6.6746
   13.380    6.9124
   13.515    8.5255
   13.650    8.0929
   13.785    6.5710
   13.920    7.0607
   14.055    8.9451
   14.190   10.3704
   14.325    6.4200
   14.460    6.3411
   14.595    6.4279
   14.730    6.3235
   14.865    6.3332
   15.000    6.4709
   15.135    7.2433
   15.270    6.7983
   15.405    6.2814
   15.540    6.3182
   15.675    6.2559
   15.810    6.3393
   15.945    6.5122
   16.080    6.7922
   16.215    7.8067
   16.350    6.4130
   16.485    6.7141
   16.620    7.8445
   16.755    6.7922
   16.890    6.7720
   17.025    8.4817
   17.160   10.5204
   17.295    6.6026
   17.430    6.5543
   17.565    7.4680
   17.700    6.5429
   17.835    6.5254
   17.970    7.2916
   18.105    6.6842
   18.240    6.4587
   18.375    7.3425
   18.510    6.8808
   18.645    6.4938
   18.780    6.6649
   18.915    6.6939
   19.050    6.5745
   19.185    6.4042
   19.320    6.5903
   19.455    6.6079
   19.590    7.4057
   19.725    7.3626
   19.860    6.4973
   19.995    6.4911
   20.130    6.4955
   20.265    7.1397
   20.400    9.7683
   20.535    7.6295
   20.670    6.4508
   20.805    6.6210
   20.940    6.4631
   21.075    6.5429
   21.210    6.6474
   21.345    6.5491
   21.480    6.4674
   21.615    6.6272
   21.750    6.7369
   21.885    7.8436
   22.020    6.9756
   22.155    6.9537
   22.290    7.6944
   22.425    7.1169
   22.560    9.2742
   22.695    9.3619
   22.830    7.6005
   22.965   11.2392
   23.100    7.1766
   23.235    7.3969
   23.370    7.5742
   23.505    6.7018
   23.640    6.8440
   23.775    6.6193
   23.910    7.3609
   24.045    7.3741
   24.180    6.6535
   24.315    6.6210
   24.450    6.5043
   24.585    6.6772
   24.720    6.5113
   24.855    6.5166
   24.990    6.7351
   25.125    6.5912
   25.260    7.0484
   25.395    6.5008
   25.530    6.8211
   25.665    6.6842
   25.800    8.0420
   25.935    8.9652
   26.070    6.4244
   26.205    6.4666
   26.340    6.4279
   26.475    7.2591
   26.610    6.5543
   26.745    6.2787
   26.880    6.3103
   27.015    7.0713
   27.150    7.2108
   27.285    6.1769
   27.420    6.2454
   27.555    6.4218
   27.690    6.9668
   27.825    6.2129
   27.960    6.6842
   28.095    6.5745
   28.230    7.5908
   28.365    6.6079
   28.500    7.2407
   28.635    6.4701
   28.770    6.2638
   28.905    6.1058
   29.040    6.3762
   29.175    6.2033
   29.310    6.9572
   29.445    6.4227
   29.580    5.9856
   29.715    5.8917
   29.850    6.2902
   29.985    6.1761
   30.120    6.1831
   30.255    5.9575
   30.390    6.0813
   30.525    5.8838
   30.660    6.3068
   30.795    5.9356
   30.930    5.9970
   31.065    5.7697
   31.200    5.8206
   31.335    5.9110
   31.470    6.2384
   31.605    5.7276
   31.740    5.7820
   31.875    5.8074
   32.010    5.9777
   32.145    6.2357
   32.280    5.8671
   32.415    5.6126
   32.550    5.5591
   32.685    5.5740
   32.820    5.6556
   32.955    5.8136
   33.090    5.6108
   33.225    5.4485
   33.360    5.4397
   33.495    5.5134
   33.630    5.5143
   33.765    5.6574
   33.900    5.9233
   34.035    5.7987
   34.170    5.5213
   34.305    5.4037
   34.440    5.4379
   34.575    5.3476
   34.710    5.3844
   34.845    5.4827
   34.980    5.3037
   35.115    5.2229
   35.250    5.2396
   35.385    5.2159
   35.520    5.1123
   35.655    5.2273
   35.790    5.3326
   35.925    5.2256
   36.060    5.3985
   36.195    5.3546
   36.330    5.2405
   36.465    5.0711
   36.600    5.2010
   36.735    5.2036
   36.870    4.9043
   37.005    5.2247
   37.140    5.6152
   37.275    5.2150
   37.410    5.0667
   37.545    5.1527
   37.680    5.1896
   37.815    5.0509
   37.950    5.1510
   38.085    5.1782
   38.220    4.9570
   38.355    5.0448
   38.490    5.0518
   38.625    4.8850
   38.760    4.9526
   38.895    4.8148
   39.030    4.8648
   39.165    4.7727
   39.300    5.0843
   39.435    4.9456
   39.570    4.9605
   39.705    4.9324
   39.840    4.9956
   39.975    4.8859
   39.990    4.9061