File: data/PXRD/PXRD_KE-259-2_Cu-Ka1_film-3mm_3s-deg.xyd
    1.500    7.2845
    1.665    6.3718
    1.830    6.4771
    1.995    5.7399
    2.160    4.7393
    2.325    4.7569
    2.490    4.3707
    2.655    4.3005
    2.820    3.8792
    2.985    4.4585
    3.150    3.8441
    3.315    4.0723
    3.480    4.0723
    3.645    3.5106
    3.810    4.1776
    3.975    3.6159
    4.140    3.5808
    4.305    4.1250
    4.470    3.8968
    4.635    3.8968
    4.800    3.9143
    4.965    3.8792
    5.130    4.4058
    5.295    4.5463
    5.460    4.8622
    5.625    4.8798
    5.790    4.2127
    5.955    3.7388
    6.120    3.8968
    6.285    3.7388
    6.450    3.3175
    6.615    3.5633
    6.780    3.0367
    6.945    3.3175
    7.110    2.8436
    7.275    3.1596
    7.440    2.7734
    7.605    2.7558
    7.770    2.4750
    7.935    2.7734
    8.100    2.4399
    8.265    2.5803
    8.430    2.3521
    8.595    2.4223
    8.760    2.2292
    8.925    2.4399
    9.090    2.1064
    9.255    2.4223
    9.420    2.4750
    9.585    2.3697
    9.750    2.0713
    9.915    2.2468
   10.080    2.4574
   10.245    2.4574
   10.410    2.4048
   10.575    2.5452
   10.740    2.2995
   10.905    2.7734
   11.070    2.5628
   11.235    2.5276
   11.400    2.6681
   11.565    2.5803
   11.730    2.4574
   11.895    2.2292
   12.060    2.3872
   12.225    2.2643
   12.390    2.0186
   12.555    2.3697
   12.720    2.0362
   12.885    2.3170
   13.050    2.2292
   13.215    2.3697
   13.380    2.0537
   13.545    2.2819
   13.710    2.2995
   13.875    2.1941
   14.040    2.2995
   14.205    2.1239
   14.370    2.2117
   14.535    2.3697
   14.700    2.3521
   14.865    2.4223
   15.030    2.0011
   15.195    2.2643
   15.360    2.3521
   15.525    2.1941
   15.690    2.1415
   15.855    2.0888
   16.020    2.2468
   16.185    2.2292
   16.350    2.3346
   16.515    2.0888
   16.680    2.2117
   16.845    2.0888
   17.010    2.5276
   17.175    2.0362
   17.340    2.2117
   17.505    2.2117
   17.670    2.1239
   17.835    2.0011
   18.000    2.0537
   18.165    2.0713
   18.330    1.9835
   18.495    1.9659
   18.660    2.4750
   18.825    2.3170
   18.990    2.0186
   19.155    2.1590
   19.320    1.9484
   19.485    2.0713
   19.650    2.2995
   19.815    2.2819
   19.980    2.0011
   20.145    1.9659
   20.310    2.0186
   20.475    1.8255
   20.640    2.0537
   20.805    2.1239
   20.970    2.2995
   21.135    2.0186
   21.300    1.7904
   21.465    1.9133
   21.630    2.0186
   21.795    1.7202
   21.960    2.1064
   22.125    1.8606
   22.290    2.1941
   22.455    1.5271
   22.620    1.8080
   22.785    1.5973
   22.950    1.7378
   23.115    1.9308
   23.280    1.4920
   23.445    1.7027
   23.610    1.6149
   23.775    1.8080
   23.940    1.7378
   24.105    1.7027
   24.270    1.6149
   24.435    1.5798
   24.600    1.5447
   24.765    1.4745
   24.930    1.5622
   25.095    1.7202
   25.260    1.6324
   25.425    1.5798
   25.590    1.6500
   25.755    1.4042
   25.920    1.6500
   26.085    1.6500
   26.250    1.1410
   26.415    1.4394
   26.580    1.5271
   26.745    1.5798
   26.910    1.3691
   27.075    1.4218
   27.240    1.3516
   27.405    1.6149
   27.570    1.3867
   27.735    1.4569
   27.900    1.3516
   28.065    1.2638
   28.230    1.1761
   28.395    1.2814
   28.560    1.1936
   28.725    1.2287
   28.890    1.5096
   29.055    1.5271
   29.220    1.6500
   29.385    1.0883
   29.550    1.1585
   29.715    1.1585
   29.880    1.0181
   30.045    1.0181
   30.210    1.1410
   30.375    1.2112
   30.540    1.1058
   30.705    1.0356
   30.870    1.0532
   31.035    1.0707
   31.200    1.0532
   31.365    0.8777
   31.530    1.1058
   31.695    1.1234
   31.860    1.0883
   32.025    0.9830
   32.190    1.0356
   32.355    0.9654
   32.520    1.0532
   32.685    1.0005
   32.850    1.0883
   33.015    1.0356
   33.180    0.9830
   33.345    0.8952
   33.510    1.0707
   33.675    0.9128
   33.840    1.0883
   34.005    1.1410
   34.170    0.7723
   34.335    0.8425
   34.500    0.8074
   34.665    0.8250
   34.830    0.9303
   34.995    0.8425
   35.160    0.9303
   35.325    0.8952
   35.490    0.9303
   35.655    0.8250
   35.820    0.8074
   35.985    0.9654
   36.150    0.9830
   36.315    0.9128
   36.480    0.8250
   36.645    0.8074
   36.810    0.8250
   36.975    0.6495
   37.140    1.0005
   37.305    0.7197
   37.470    0.5968
   37.635    0.9128
   37.800    0.8425
   37.965    0.9479
   38.130    0.9303
   38.295    0.9303
   38.460    0.9303
   38.625    0.9303
   38.790    0.6670
   38.955    0.6846
   39.120    0.7723
   39.285    0.7723
   39.450    0.8601
   39.615    0.8074
   39.780    0.9654
   39.945    0.8250
   40.110    0.7548
   40.275    0.6846
   40.440    0.8250
   40.605    0.7723
   40.770    0.8074
   40.935    0.7372
   41.100    0.8425
   41.265    0.8777
   41.430    0.7723
   41.595    1.0005
   41.760    0.7197
   41.925    0.8601
   42.090    0.9303
   42.255    0.8250
   42.420    0.8074
   42.585    0.7021
   42.750    0.7899
   42.915    0.7197
   43.080    0.7899
   43.245    0.8777
   43.410    0.7723
   43.575    0.8425
   43.740    0.9303
   43.905    0.8777
   44.070    0.8074
   44.235    0.6670
   44.400    0.7723
   44.565    0.6495
   44.730    0.7021
   44.895    0.7021
   45.060    0.6495
   45.225    0.5968
   45.390    0.7548
   45.555    0.7021
   45.720    0.8952
   45.885    0.7723
   46.050    0.7548
   46.215    0.7197
   46.380    0.5968
   46.545    0.7372
   46.710    0.8425
   46.875    0.6670
   47.040    0.7197
   47.205    0.5968
   47.370    0.6846
   47.535    0.8777
   47.700    0.7723
   47.865    0.6846
   48.030    0.8601
   48.195    0.6846
   48.360    0.6319
   48.525    0.7197
   48.690    0.6846
   48.855    0.7548
   49.020    0.5617
   49.185    0.6846
   49.350    0.6846
   49.515    0.6144
   49.680    0.7899
   49.845    0.8250
   49.980    0.6670