File: data/PXRD/PXRD_KE-234_Co-Ka1_film-3mm_5s-deg.xyd
    1.500   19.8823
    1.635   15.5270
    1.770   12.7555
    1.905   10.5832
    2.040    9.1279
    2.175    7.1268
    2.310    6.8272
    2.445    6.0460
    2.580    4.8261
    2.715    5.1043
    2.850    4.6977
    2.985    3.9914
    3.120    3.8630
    3.255    4.2162
    3.390    4.1734
    3.525    5.0294
    3.660    6.6453
    3.795    9.5238
    3.930   11.7817
    4.065   11.8673
    4.200    9.6950
    4.335    6.9770
    4.470    5.7571
    4.605    5.2648
    4.740    6.2279
    4.875    5.8962
    5.010    5.6073
    5.145    4.7405
    5.280    3.9379
    5.415    3.2103
    5.550    2.4826
    5.685    2.2579
    5.820    2.0546
    5.955    2.2793
    6.090    2.1937
    6.225    2.0653
    6.360    2.1723
    6.495    2.2258
    6.630    2.2365
    6.765    1.7764
    6.900    1.7442
    7.035    1.6158
    7.170    1.6265
    7.305    1.4981
    7.440    1.5409
    7.575    1.5195
    7.710    1.6158
    7.845    1.7549
    7.980    2.1937
    8.115    2.3542
    8.250    2.1188
    8.385    1.7764
    8.520    1.4553
    8.655    1.4018
    8.790    1.2841
    8.925    1.1878
    9.060    1.2948
    9.195    1.4125
    9.330    1.3055
    9.465    1.1236
    9.600    1.3376
    9.735    1.3697
    9.870    1.2841
   10.005    1.6051
   10.140    1.3269
   10.275    1.4981
   10.410    1.2092
   10.545    1.0915
   10.680    1.3055
   10.815    1.0701
   10.950    0.9738
   11.085    0.9310
   11.220    0.8882
   11.355    0.9310
   11.490    0.8989
   11.625    0.8775
   11.760    0.9203
   11.895    0.9096
   12.030    0.9417
   12.165    0.9096
   12.300    0.9310
   12.435    0.9096
   12.570    1.1450
   12.705    1.1771
   12.840    0.9631
   12.975    1.0487
   13.110    1.0166
   13.245    0.9203
   13.380    0.8561
   13.515    0.8561
   13.650    0.9738
   13.785    0.9203
   13.920    0.9738
   14.055    0.7598
   14.190    0.8026
   14.325    0.7919
   14.460    0.9096
   14.595    0.7705
   14.730    0.9096
   14.865    1.0487
   15.000    0.9096
   15.135    0.8775
   15.270    0.8775
   15.405    0.8347
   15.540    0.9738
   15.675    1.0273
   15.810    0.8668
   15.945    0.7063
   16.080    0.8775
   16.215    0.8133
   16.350    0.9845
   16.485    0.9738
   16.620    0.9096
   16.755    0.8133
   16.890    1.0915
   17.025    1.1236
   17.160    0.8347
   17.295    0.8026
   17.430    0.9203
   17.565    0.7491
   17.700    0.7812
   17.835    0.9524
   17.970    0.8668
   18.105    0.8989
   18.240    0.8347
   18.375    0.8882
   18.510    0.8989
   18.645    0.9203
   18.780    0.8561
   18.915    0.7277
   19.050    0.8454
   19.185    0.8561
   19.320    0.8240
   19.455    0.9203
   19.590    0.8026
   19.725    0.8240
   19.860    0.8882
   19.995    0.9310
   20.130    0.7812
   20.265    0.8026
   20.400    0.8882
   20.535    0.8133
   20.670    0.8882
   20.805    0.8240
   20.940    0.8240
   21.075    0.7598
   21.210    0.8668
   21.345    0.9738
   21.480    0.7812
   21.615    0.9631
   21.750    0.8882
   21.885    0.7812
   22.020    0.8882
   22.155    0.8668
   22.290    0.8561
   22.425    0.8882
   22.560    0.9524
   22.695    0.7063
   22.830    0.9417
   22.965    0.7919
   23.100    0.6421
   23.235    0.9203
   23.370    0.8454
   23.505    0.9952
   23.640    0.9310
   23.775    0.8347
   23.910    0.8133
   24.045    0.8668
   24.180    1.0166
   24.315    0.7919
   24.450    0.8668
   24.585    0.8454
   24.720    0.8668
   24.855    0.8454
   24.990    0.8882
   25.125    0.9096
   25.260    0.7491
   25.395    0.7812
   25.530    0.7384
   25.665    0.8347
   25.800    0.6742
   25.935    0.8561
   26.070    0.7812
   26.205    0.7277
   26.340    0.7919
   26.475    0.8347
   26.610    0.7598
   26.745    0.6100
   26.880    0.7491
   27.015    0.7063
   27.150    0.6849
   27.285    0.6742
   27.420    0.7063
   27.555    0.6207
   27.690    0.6849
   27.825    0.8347
   27.960    0.6314
   28.095    0.6100
   28.230    0.8026
   28.365    0.5778
   28.500    0.5671
   28.635    0.5778
   28.770    0.6635
   28.905    0.6100
   29.040    0.5886
   29.175    0.5671
   29.310    0.5886
   29.445    0.5671
   29.580    0.5457
   29.715    0.5778
   29.850    0.5457
   29.985    0.6314
   30.120    0.6314
   30.255    0.6207
   30.390    0.5778
   30.525    0.5350
   30.660    0.4601
   30.795    0.6314
   30.930    0.5886
   31.065    0.4494
   31.200    0.5564
   31.335    0.4280
   31.470    0.5564
   31.605    0.3638
   31.740    0.4601
   31.875    0.4601
   32.010    0.4708
   32.145    0.4815
   32.280    0.4066
   32.415    0.3959
   32.550    0.5778
   32.685    0.6100
   32.820    0.6100
   32.955    0.5243
   33.090    0.5886
   33.225    0.3638
   33.360    0.4708
   33.495    0.4815
   33.630    0.4387
   33.765    0.7384
   33.900    0.4173
   34.035    0.5029
   34.170    0.4066
   34.305    0.4173
   34.440    0.3210
   34.575    0.4066
   34.710    0.4173
   34.845    0.4066
   34.980    0.4066
   35.115    0.3959
   35.250    0.4387
   35.385    0.2889
   35.520    0.3103
   35.655    0.4601
   35.790    0.3638
   35.925    0.4387
   36.060    0.3745
   36.195    0.3638
   36.330    0.3531
   36.465    0.4387
   36.600    0.3852
   36.735    0.3210
   36.870    0.3959
   37.005    0.3959
   37.140    0.4494
   37.275    0.3638
   37.410    0.6421
   37.545    0.3531
   37.680    0.4173
   37.815    0.3852
   37.950    0.4280
   38.085    0.2889
   38.220    0.3638
   38.355    0.2889
   38.490    0.2675
   38.625    0.2461
   38.760    0.3745
   38.895    0.2782
   39.030    0.3317
   39.165    0.2782
   39.300    0.1926
   39.435    0.3959
   39.570    0.4494
   39.705    0.3531
   39.840    0.2461
   39.975    0.3638
   39.990    0.2996