File: data/PXRD/PXRD_KE-107_Cu-Ka1_capillary-1mm_5s-deg.xyd
    1.500   20.4318
    1.635   18.8626
    1.770   17.5777
    1.905   16.4824
    2.040   16.4824
    2.175   16.6193
    2.310   16.9774
    2.445   18.2201
    2.580   20.1580
    2.715   22.4645
    2.850   26.3296
    2.985   34.3233
    3.120   44.0337
    3.255   62.2117
    3.390   99.2312
    3.525   82.5171
    3.660   38.2938
    3.795   40.7899
    3.930   49.9315
    4.065   48.5097
    4.200   31.5113
    4.335   18.2938
    4.470   11.5113
    4.605    9.0153
    4.740    8.0042
    4.875    7.2038
    5.010    6.4771
    5.145    6.2243
    5.280    6.0137
    5.415    5.9505
    5.550    5.5608
    5.685    5.4344
    5.820    5.9610
    5.955    5.6240
    6.090    5.6345
    6.225    5.8557
    6.360    6.4034
    6.495    6.6667
    6.630    7.2143
    6.765    9.4997
    6.900   13.6809
    7.035   12.1748
    7.170    6.9616
    7.305    6.5087
    7.440    6.6561
    7.575    6.9405
    7.710    7.4355
    7.845    7.7725
    7.980    8.5519
    8.115    9.3418
    8.250    8.5519
    8.385    7.9094
    8.520    7.0985
    8.655    6.7825
    8.790    6.0769
    8.925    5.6451
    9.060    5.4555
    9.195    5.1606
    9.330    5.4555
    9.465    4.8763
    9.600    5.1395
    9.735    4.9500
    9.870    5.0342
   10.005    5.2133
   10.140    5.4871
   10.275    5.3397
   10.410    5.6029
   10.545    5.7820
   10.680    5.2238
   10.815    5.0553
   10.950    5.4660
   11.085    5.0448
   11.220    4.9184
   11.355    5.2238
   11.490    5.0342
   11.625    5.0026
   11.760    5.1080
   11.895    5.8873
   12.030    5.6135
   12.165    5.3397
   12.300    5.4871
   12.435    5.5187
   12.570    5.6029
   12.705    5.3923
   12.840    5.4766
   12.975    5.4028
   13.110    5.1185
   13.245    5.5819
   13.380    5.4239
   13.515    5.2027
   13.650    4.7920
   13.785    4.8763
   13.920    5.2554
   14.055    4.8025
   14.190    4.9078
   14.325    4.9710
   14.460    4.8973
   14.595    4.9816
   14.730    5.0553
   14.865    4.9289
   15.000    4.8763
   15.135    5.0869
   15.270    5.1080
   15.405    4.9816
   15.540    4.7604
   15.675    5.0869
   15.810    5.2765
   15.945    5.0237
   16.080    4.7393
   16.215    5.2765
   16.350    5.2975
   16.485    5.1290
   16.620    4.9710
   16.755    4.8657
   16.890    5.1185
   17.025    5.2238
   17.160    5.3818
   17.295    4.7920
   17.430    5.2975
   17.565    5.1080
   17.700    5.0026
   17.835    4.7920
   17.970    5.2659
   18.105    5.2027
   18.240    4.9500
   18.375    5.1501
   18.510    5.0869
   18.645    5.2870
   18.780    5.1290
   18.915    5.4028
   19.050    5.2554
   19.185    5.2765
   19.320    5.3923
   19.455    5.3081
   19.590    5.4976
   19.725    5.4450
   19.860    5.8662
   19.995    5.6345
   20.130    5.9189
   20.265    5.8768
   20.400    5.6135
   20.535    5.2659
   20.670    5.8241
   20.805    5.3081
   20.940    5.4450
   21.075    5.8768
   21.210    5.6977
   21.345    5.4344
   21.480    5.6661
   21.615    5.6240
   21.750    5.9400
   21.885    5.6240
   22.020    5.9505
   22.155    5.6767
   22.290    5.6451
   22.425    5.4976
   22.560    5.7293
   22.695    5.3502
   22.830    5.1185
   22.965    5.5714
   23.100    5.2554
   23.235    5.6345
   23.370    5.1395
   23.505    5.4871
   23.640    5.2659
   23.775    5.6345
   23.910    5.1501
   24.045    5.2870
   24.180    5.5398
   24.315    5.2343
   24.450    5.4344
   24.585    5.3923
   24.720    5.2554
   24.855    5.3712
   24.990    5.1080
   25.125    4.9710
   25.260    4.8341
   25.395    4.8657
   25.530    5.2554
   25.665    4.9078
   25.800    5.0132
   25.935    4.7920
   26.070    5.4871
   26.205    5.0553
   26.340    4.7815
   26.475    4.8973
   26.610    4.8236
   26.745    4.8763
   26.880    4.8657
   27.015    4.9078
   27.150    4.9289
   27.285    4.8973
   27.420    4.5498
   27.555    4.6656
   27.690    4.5708
   27.825    4.4655
   27.960    4.6656
   28.095    4.8973
   28.230    5.0342
   28.365    4.7920
   28.500    5.0132
   28.635    4.9500
   28.770    4.7604
   28.905    4.8341
   29.040    4.5603
   29.175    4.7183
   29.310    4.5498
   29.445    4.5392
   29.580    5.0026
   29.715    4.5392
   29.850    4.6972
   29.985    4.5814
   30.120    4.4339
   30.255    4.5603
   30.390    4.5603
   30.525    4.2233
   30.660    4.3497
   30.795    4.2865
   30.930    4.0969
   31.065    4.8447
   31.200    4.4234
   31.335    4.4234
   31.470    4.3707
   31.605    4.6340
   31.740    4.1285
   31.875    4.5919
   32.010    4.0548
   32.145    4.5287
   32.280    4.4866
   32.415    4.0232
   32.550    3.9494
   32.685    4.0653
   32.820    4.0232
   32.955    4.1601
   33.090    4.3286
   33.225    4.3707
   33.360    3.9179
   33.495    4.0126
   33.630    3.9179
   33.765    4.1285
   33.900    4.4550
   34.035    3.8652
   34.170    4.0126
   34.305    3.9810
   34.440    3.8231
   34.575    4.4128
   34.710    3.7177
   34.845    3.6651
   34.980    4.1074
   35.115    4.0126
   35.250    3.7809
   35.385    3.8757
   35.520    3.7599
   35.655    3.5492
   35.790    3.6335
   35.925    3.5703
   36.060    3.9284
   36.195    4.0548
   36.330    3.8757
   36.465    3.7283
   36.600    3.4650
   36.735    3.5914
   36.870    3.4229
   37.005    3.8547
   37.140    3.7493
   37.275    3.7915
   37.410    3.5282
   37.545    3.7915
   37.680    3.4123
   37.815    3.3807
   37.950    3.7177
   38.085    3.4544
   38.220    3.6124
   38.355    3.7177
   38.490    3.5598
   38.625    3.8020
   38.760    3.4650
   38.895    3.5071
   39.030    3.5071
   39.165    3.7072
   39.300    3.2122
   39.435    3.3491
   39.570    3.4860
   39.705    3.4229
   39.840    3.1174
   39.975    3.2017
   39.990    3.2649