File: data/PXRD/PXRD_KE-241_Co-Ka1_capillary-1mm_5s-deg.xyd
    1.500    3.5527
    1.635    2.8999
    1.770    2.5040
    1.905    2.0974
    2.040    1.7978
    2.175    1.5409
    2.310    1.4446
    2.445    1.3590
    2.580    1.2092
    2.715    1.2841
    2.850    1.2627
    2.985    1.0808
    3.120    1.1557
    3.255    0.9631
    3.390    1.0487
    3.525    1.0808
    3.660    1.1557
    3.795    0.8882
    3.930    0.9096
    4.065    0.9845
    4.200    1.0166
    4.335    0.9203
    4.470    1.0059
    4.605    1.0273
    4.740    0.9417
    4.875    1.0059
    5.010    0.9310
    5.145    0.8989
    5.280    0.9417
    5.415    0.9845
    5.550    0.9631
    5.685    1.0166
    5.820    0.7812
    5.955    0.9417
    6.090    0.9952
    6.225    1.0915
    6.360    0.9203
    6.495    0.9952
    6.630    0.9310
    6.765    0.8240
    6.900    0.7705
    7.035    0.9524
    7.170    0.9738
    7.305    1.0166
    7.440    1.0059
    7.575    1.0487
    7.710    1.0701
    7.845    0.8561
    7.980    0.9203
    8.115    0.9631
    8.250    0.8240
    8.385    0.9417
    8.520    1.0915
    8.655    1.0487
    8.790    1.0059
    8.925    1.0380
    9.060    0.9203
    9.195    1.0059
    9.330    0.9417
    9.465    1.0273
    9.600    1.1985
    9.735    1.0273
    9.870    1.0380
   10.005    1.2199
   10.140    1.2199
   10.275    1.1557
   10.410    1.0380
   10.545    1.2306
   10.680    1.1771
   10.815    1.3697
   10.950    1.1236
   11.085    1.1878
   11.220    1.2734
   11.355    1.2199
   11.490    1.0915
   11.625    1.3162
   11.760    1.1557
   11.895    1.1236
   12.030    1.1771
   12.165    1.1129
   12.300    1.1450
   12.435    1.0166
   12.570    1.1343
   12.705    0.8882
   12.840    1.1022
   12.975    1.1129
   13.110    1.0701
   13.245    0.9738
   13.380    1.1129
   13.515    0.9417
   13.650    1.0701
   13.785    0.9952
   13.920    1.1985
   14.055    0.9845
   14.190    0.9845
   14.325    0.8989
   14.460    0.8454
   14.595    1.0059
   14.730    0.9417
   14.865    0.8989
   15.000    0.8347
   15.135    0.9203
   15.270    1.0701
   15.405    0.7812
   15.540    0.7598
   15.675    0.9310
   15.810    0.8026
   15.945    0.7812
   16.080    0.7705
   16.215    0.9096
   16.350    0.8026
   16.485    0.8668
   16.620    0.7277
   16.755    0.8026
   16.890    0.8454
   17.025    0.7812
   17.160    1.0059
   17.295    0.8347
   17.430    0.8133
   17.565    0.8989
   17.700    0.7705
   17.835    0.8989
   17.970    0.8775
   18.105    0.8668
   18.240    0.8989
   18.375    0.7919
   18.510    0.8026
   18.645    0.8133
   18.780    0.7598
   18.915    0.8133
   19.050    1.0166
   19.185    0.7705
   19.320    0.7705
   19.455    0.8989
   19.590    0.8026
   19.725    0.8989
   19.860    0.7812
   19.995    0.7063
   20.130    0.8882
   20.265    0.7384
   20.400    0.8240
   20.535    0.9952
   20.670    0.8989
   20.805    0.7170
   20.940    0.8454
   21.075    0.9524
   21.210    0.8989
   21.345    0.9417
   21.480    0.9096
   21.615    0.8882
   21.750    0.9631
   21.885    0.8347
   22.020    1.1985
   22.155    1.1129
   22.290    0.9203
   22.425    0.7919
   22.560    0.8775
   22.695    0.8989
   22.830    0.8133
   22.965    0.9203
   23.100    0.8882
   23.235    0.8026
   23.370    0.8561
   23.505    0.8026
   23.640    0.9417
   23.775    0.8989
   23.910    0.9203
   24.045    0.8240
   24.180    0.9417
   24.315    0.9417
   24.450    1.0166
   24.585    0.8561
   24.720    0.9738
   24.855    0.7491
   24.990    0.9417
   25.125    0.8347
   25.260    0.8882
   25.395    1.0166
   25.530    0.9738
   25.665    0.8989
   25.800    0.8989
   25.935    0.8775
   26.070    0.7705
   26.205    0.9952
   26.340    0.9417
   26.475    1.0059
   26.610    0.9203
   26.745    0.8026
   26.880    0.9524
   27.015    1.0059
   27.150    0.9096
   27.285    0.8775
   27.420    0.9096
   27.555    0.9952
   27.690    0.9417
   27.825    0.8668
   27.960    0.9096
   28.095    1.0166
   28.230    0.8775
   28.365    0.8561
   28.500    0.8882
   28.635    0.7277
   28.770    0.6849
   28.905    0.8240
   29.040    0.6742
   29.175    0.8561
   29.310    0.7598
   29.445    0.7491
   29.580    0.8026
   29.715    0.9524
   29.850    0.7705
   29.985    0.6956
   30.120    0.7598
   30.255    0.5993
   30.390    0.8240
   30.525    0.7598
   30.660    0.8347
   30.795    0.7277
   30.930    0.7384
   31.065    0.7384
   31.200    0.7705
   31.335    0.7598
   31.470    0.8240
   31.605    0.6314
   31.740    0.6100
   31.875    0.7277
   32.010    0.6956
   32.145    0.5564
   32.280    0.6528
   32.415    0.6956
   32.550    0.8240
   32.685    1.0808
   32.820    0.6742
   32.955    0.6635
   33.090    0.8026
   33.225    0.5993
   33.360    0.5778
   33.495    0.6635
   33.630    0.5457
   33.765    1.0487
   33.900    0.6635
   34.035    0.6421
   34.170    0.5243
   34.305    0.5671
   34.440    0.5564
   34.575    0.5886
   34.710    0.7919
   34.845    0.5778
   34.980    0.5029
   35.115    0.5886
   35.250    0.5457
   35.385    0.5993
   35.520    0.5136
   35.655    0.6100
   35.790    0.5457
   35.925    0.4922
   36.060    0.5136
   36.195    0.4387
   36.330    0.4815
   36.465    0.5243
   36.600    0.4494
   36.735    0.5029
   36.870    0.5243
   37.005    0.6207
   37.140    0.5993
   37.275    0.5243
   37.410    1.3055
   37.545    1.1664
   37.680    0.5778
   37.815    0.5029
   37.950    0.5029
   38.085    0.4280
   38.220    0.5029
   38.355    0.3852
   38.490    0.4280
   38.625    0.4494
   38.760    0.3424
   38.895    0.4494
   39.030    0.4280
   39.165    0.3745
   39.300    0.4922
   39.435    0.7598
   39.570    0.7598
   39.705    0.4601
   39.840    0.6100
   39.975    0.4708
   39.990    0.4494