File: data/PXRD/PXRD_KE-173_Cu-Ka1_capillary-1mm_5s-deg.xyd
    1.500   18.3044
    1.635   16.9142
    1.770   16.2296
    1.905   14.6393
    2.040   14.7973
    2.175   15.8399
    2.310   15.6503
    2.445   16.9458
    2.580   19.1259
    2.715   22.0642
    2.850   26.5403
    2.985   32.3012
    3.120   42.7172
    3.255   58.8731
    3.390   93.6914
    3.525   83.4755
    3.660   38.0832
    3.795   35.7662
    3.930   40.5687
    4.065   41.9379
    4.200   34.3549
    4.335   22.3486
    4.470   13.7546
    4.605    9.3839
    4.740    7.6040
    4.875    6.4982
    5.010    6.1506
    5.145    5.6240
    5.280    5.4871
    5.415    5.5608
    5.550    5.1395
    5.685    4.7288
    5.820    4.8025
    5.955    4.7815
    6.090    4.8341
    6.225    5.2870
    6.360    5.4028
    6.495    6.1506
    6.630    6.8984
    6.765    9.1101
    6.900   13.0700
    7.035   11.4692
    7.170    6.5719
    7.305    5.4555
    7.440    5.7083
    7.575    5.7820
    7.710    5.6767
    7.845    6.4876
    7.980    7.0985
    8.115    7.5829
    8.250    7.6988
    8.385    7.5619
    8.520    7.5303
    8.655    6.3191
    8.790    6.0979
    8.925    5.1606
    9.060    5.0553
    9.195    4.5498
    9.330    4.5919
    9.465    4.4023
    9.600    4.6761
    9.735    4.9921
    9.870    4.5076
   10.005    4.3707
   10.140    4.5182
   10.275    5.0237
   10.410    4.8341
   10.545    4.7604
   10.680    4.6551
   10.815    4.5392
   10.950    4.4444
   11.085    4.4444
   11.220    4.5076
   11.355    4.5708
   11.490    4.3813
   11.625    4.8447
   11.760    4.6340
   11.895    4.5919
   12.030    4.5814
   12.165    4.6867
   12.300    5.1290
   12.435    5.0869
   12.570    4.9816
   12.705    4.9078
   12.840    4.6761
   12.975    5.2765
   13.110    4.7393
   13.245    4.9605
   13.380    4.6235
   13.515    4.6235
   13.650    5.1501
   13.785    4.7393
   13.920    4.7393
   14.055    4.5708
   14.190    4.2759
   14.325    4.2970
   14.460    4.5603
   14.595    4.6130
   14.730    4.0653
   14.865    4.6656
   15.000    4.1496
   15.135    4.1811
   15.270    4.3707
   15.405    4.3075
   15.540    4.6235
   15.675    4.2022
   15.810    4.2338
   15.945    4.4023
   16.080    4.7815
   16.215    4.4655
   16.350    4.3391
   16.485    4.0021
   16.620    4.7183
   16.755    4.5919
   16.890    4.2022
   17.025    4.1811
   17.160    4.2127
   17.295    4.3181
   17.430    4.3075
   17.565    4.3181
   17.700    4.3286
   17.835    4.5287
   17.970    4.1074
   18.105    4.4444
   18.240    4.6024
   18.375    4.3602
   18.510    4.1811
   18.645    4.4866
   18.780    4.3075
   18.915    4.2127
   19.050    4.5287
   19.185    4.4971
   19.320    4.4550
   19.455    4.5182
   19.590    4.6130
   19.725    4.7920
   19.860    4.9078
   19.995    4.9289
   20.130    5.3081
   20.265    4.8447
   20.400    4.8973
   20.535    4.9605
   20.670    4.6340
   20.805    4.8973
   20.940    4.8447
   21.075    4.9710
   21.210    4.6024
   21.345    5.1606
   21.480    5.0342
   21.615    4.9500
   21.750    4.2865
   21.885    5.0132
   22.020    5.1185
   22.155    4.8447
   22.290    5.1711
   22.425    4.8868
   22.560    4.8868
   22.695    5.0342
   22.830    4.7393
   22.965    4.7288
   23.100    4.8341
   23.235    4.7709
   23.370    4.5708
   23.505    4.5919
   23.640    4.4339
   23.775    4.4971
   23.910    4.5392
   24.045    4.6024
   24.180    4.6867
   24.315    4.3181
   24.450    4.9605
   24.585    4.6867
   24.720    4.5603
   24.855    4.4339
   24.990    4.5287
   25.125    4.2865
   25.260    4.2233
   25.395    4.4550
   25.530    4.2443
   25.665    4.4128
   25.800    4.4550
   25.935    4.1917
   26.070    3.7283
   26.205    3.8968
   26.340    4.0864
   26.475    3.8757
   26.610    3.8757
   26.745    4.2654
   26.880    4.0548
   27.015    3.9179
   27.150    4.4550
   27.285    4.0864
   27.420    3.7915
   27.555    3.9916
   27.690    3.8863
   27.825    3.8757
   27.960    4.0864
   28.095    4.2127
   28.230    4.1285
   28.365    3.8231
   28.500    4.3497
   28.635    4.1601
   28.770    4.0653
   28.905    3.8547
   29.040    3.8757
   29.175    3.6651
   29.310    4.0548
   29.445    3.8020
   29.580    3.8231
   29.715    4.0126
   29.850    3.6862
   29.985    3.5492
   30.120    3.7809
   30.255    3.8020
   30.390    3.8125
   30.525    3.8231
   30.660    3.6862
   30.795    3.7809
   30.930    3.5282
   31.065    3.7388
   31.200    4.0021
   31.335    3.9600
   31.470    3.6651
   31.605    3.7493
   31.740    3.4123
   31.875    3.8125
   32.010    3.5703
   32.145    3.6756
   32.280    3.6335
   32.415    3.3597
   32.550    3.7177
   32.685    3.5387
   32.820    3.5598
   32.955    3.8125
   33.090    3.6335
   33.225    3.2859
   33.360    3.3070
   33.495    3.2859
   33.630    3.4439
   33.765    3.0648
   33.900    3.3386
   34.035    3.4018
   34.170    3.2227
   34.305    3.2122
   34.440    3.3175
   34.575    3.1069
   34.710    3.3597
   34.845    3.4229
   34.980    3.0332
   35.115    3.3807
   35.250    2.8541
   35.385    2.8541
   35.520    3.1385
   35.655    3.0964
   35.790    3.0016
   35.925    3.0332
   36.060    3.2438
   36.195    3.1385
   36.330    3.2017
   36.465    2.9384
   36.600    3.2122
   36.735    2.7067
   36.870    2.9595
   37.005    2.9595
   37.140    2.9595
   37.275    3.3281
   37.410    3.0016
   37.545    2.9595
   37.680    2.8015
   37.815    2.9068
   37.950    2.8857
   38.085    2.8436
   38.220    2.8015
   38.355    2.9384
   38.490    2.9173
   38.625    2.8541
   38.760    3.0964
   38.895    2.9910
   39.030    2.8225
   39.165    2.5066
   39.300    2.9068
   39.435    2.8120
   39.570    2.5698
   39.705    2.9279
   39.840    2.8963
   39.975    3.0437
   39.990    3.0858