File: data/PXRD/PXRD_KE-263_Co-Ka1_film-3mm_3s-deg.xyd
    1.500    3.2459
    1.635    2.6931
    1.770    2.3720
    1.905    2.4077
    2.040    1.9975
    2.175    1.7121
    2.310    2.1045
    2.445    1.5873
    2.580    1.6051
    2.715    1.3376
    2.850    1.6943
    2.985    1.4981
    3.120    1.4090
    3.255    1.3019
    3.390    1.3733
    3.525    1.4803
    3.660    1.3019
    3.795    1.4981
    3.930    1.2306
    4.065    1.4981
    4.200    1.4446
    4.335    1.5516
    4.470    1.3733
    4.605    1.4803
    4.740    1.4090
    4.875    1.1949
    5.010    1.2663
    5.145    1.4090
    5.280    1.3911
    5.415    1.6230
    5.550    1.4268
    5.685    1.2841
    5.820    1.4446
    5.955    1.6230
    6.090    1.7657
    6.225    1.6051
    6.360    1.8905
    6.495    1.9975
    6.630    1.7657
    6.765    1.9083
    6.900    1.3019
    7.035    1.1949
    7.170    1.3554
    7.305    1.4803
    7.440    1.5695
    7.575    1.2306
    7.710    1.0344
    7.845    1.3376
    7.980    1.2663
    8.115    1.3019
    8.250    1.2484
    8.385    1.1593
    8.520    1.0701
    8.655    1.0523
    8.790    0.8561
    8.925    1.1414
    9.060    0.9988
    9.195    1.1058
    9.330    0.9988
    9.465    0.8739
    9.600    1.0879
    9.735    0.8561
    9.870    0.8026
   10.005    0.9631
   10.140    0.7491
   10.275    0.7134
   10.410    0.9096
   10.545    0.8026
   10.680    0.7669
   10.815    0.7134
   10.950    0.5707
   11.085    0.8561
   11.220    0.7847
   11.355    0.6956
   11.490    0.8382
   11.625    1.0523
   11.760    0.6599
   11.895    0.7491
   12.030    0.7134
   12.165    0.9274
   12.300    0.8026
   12.435    0.9096
   12.570    0.9096
   12.705    0.7312
   12.840    1.1058
   12.975    0.8561
   13.110    0.9631
   13.245    0.8382
   13.380    0.8026
   13.515    0.9631
   13.650    0.8204
   13.785    0.7134
   13.920    0.6777
   14.055    0.6956
   14.190    0.8561
   14.325    0.6777
   14.460    0.7491
   14.595    0.7312
   14.730    0.6599
   14.865    0.6599
   15.000    0.7669
   15.135    0.9274
   15.270    0.6242
   15.405    0.8204
   15.540    0.7312
   15.675    0.8026
   15.810    0.8561
   15.945    0.8561
   16.080    0.8026
   16.215    0.9096
   16.350    0.6242
   16.485    0.9631
   16.620    0.8382
   16.755    0.9988
   16.890    1.0166
   17.025    0.8382
   17.160    0.7134
   17.295    0.6599
   17.430    0.7847
   17.565    0.8026
   17.700    0.8382
   17.835    0.7312
   17.970    0.6242
   18.105    0.8026
   18.240    0.7669
   18.375    0.7847
   18.510    0.6956
   18.645    0.6421
   18.780    0.7491
   18.915    0.5886
   19.050    0.7669
   19.185    0.7669
   19.320    0.6956
   19.455    0.7312
   19.590    0.8739
   19.725    0.7491
   19.860    0.7134
   19.995    0.8204
   20.130    0.8382
   20.265    0.8026
   20.400    0.9452
   20.535    0.6242
   20.670    0.7491
   20.805    0.7134
   20.940    0.6421
   21.075    0.7312
   21.210    0.8382
   21.345    0.8204
   21.480    0.6421
   21.615    0.7491
   21.750    0.9096
   21.885    0.7134
   22.020    0.7134
   22.155    0.8204
   22.290    0.6956
   22.425    0.6599
   22.560    0.5529
   22.695    0.6956
   22.830    0.5350
   22.965    0.6599
   23.100    0.4815
   23.235    0.8026
   23.370    0.8204
   23.505    0.5707
   23.640    0.6599
   23.775    0.6599
   23.910    0.6064
   24.045    0.6956
   24.180    0.7312
   24.315    0.7134
   24.450    0.7669
   24.585    0.7491
   24.720    0.6599
   24.855    0.7312
   24.990    0.8026
   25.125    0.6956
   25.260    0.5350
   25.395    0.6956
   25.530    0.5707
   25.665    0.7134
   25.800    0.5172
   25.935    0.6956
   26.070    0.5350
   26.205    0.5529
   26.340    0.5172
   26.475    0.5886
   26.610    0.6421
   26.745    0.7134
   26.880    0.5350
   27.015    0.4994
   27.150    0.6599
   27.285    0.4102
   27.420    0.6599
   27.555    0.4637
   27.690    0.6777
   27.825    0.4280
   27.960    0.5886
   28.095    0.4280
   28.230    0.6242
   28.365    0.6599
   28.500    0.5529
   28.635    0.5350
   28.770    0.4815
   28.905    0.3924
   29.040    0.4815
   29.175    0.5707
   29.310    0.4994
   29.445    0.6242
   29.580    0.7312
   29.715    0.5172
   29.850    0.4637
   29.985    0.6064
   30.120    0.6777
   30.255    0.6599
   30.390    0.4994
   30.525    0.4815
   30.660    0.3924
   30.795    0.4815
   30.930    0.5529
   31.065    0.4815
   31.200    0.4637
   31.335    0.6599
   31.470    0.5529
   31.605    0.4459
   31.740    0.4815
   31.875    0.5172
   32.010    0.3924
   32.145    0.2854
   32.280    0.4459
   32.415    0.3745
   32.550    0.4637
   32.685    0.3567
   32.820    0.3567
   32.955    0.4102
   33.090    0.3924
   33.225    0.3924
   33.360    0.3567
   33.495    0.4994
   33.630    0.3924
   33.765    0.4102
   33.900    0.3924
   34.035    0.4994
   34.170    0.4994
   34.305    0.5350
   34.440    0.3745
   34.575    0.3567
   34.710    0.3924
   34.845    0.2319
   34.980    0.2497
   35.115    0.3389
   35.250    0.4280
   35.385    0.3745
   35.520    0.2140
   35.655    0.3389
   35.790    0.4102
   35.925    0.3210
   36.060    0.3032
   36.195    0.2854
   36.330    0.2319
   36.465    0.3924
   36.600    0.3924
   36.735    0.4102
   36.870    0.2497
   37.005    0.3210
   37.140    0.5350
   37.275    0.2497
   37.410    0.1783
   37.545    0.2497
   37.680    0.1962
   37.815    0.2140
   37.950    0.2497
   38.085    0.3032
   38.220    0.3210
   38.355    0.2675
   38.490    0.1962
   38.625    0.1962
   38.760    0.1962
   38.895    0.2854
   39.030    0.2140
   39.165    0.1962
   39.300    0.2675
   39.435    0.2497
   39.570    0.2675
   39.705    0.2497
   39.840    0.2319
   39.975    0.1962
   39.990    0.1605