File: data/PXRD/PXRD_KE-060-2_Cu-Ka1_capillary-1mm_5s-deg.xyd
    1.500    4.4760
    1.635    4.4023
    1.770    4.1601
    1.905    4.1601
    2.040    4.1390
    2.175    3.8231
    2.310    3.6230
    2.445    3.7388
    2.580    3.6862
    2.715    3.8968
    2.850    3.6862
    2.985    3.8231
    3.120    3.8336
    3.255    3.6230
    3.390    3.5703
    3.525    3.5387
    3.660    4.2022
    3.795    4.0653
    3.930    3.4966
    4.065    3.4860
    4.200    3.4123
    4.335    3.4966
    4.470    3.7283
    4.605    3.6019
    4.740    3.3913
    4.875    3.2543
    5.010    3.4755
    5.145    3.3702
    5.280    3.5282
    5.415    3.6019
    5.550    3.7809
    5.685    3.3807
    5.820    3.3281
    5.955    3.5808
    6.090    3.4966
    6.225    3.4650
    6.360    3.5282
    6.495    3.3702
    6.630    3.6546
    6.765    3.5703
    6.900    3.6756
    7.035    3.6862
    7.170    3.3913
    7.305    3.4334
    7.440    3.7283
    7.575    3.5808
    7.710    4.1601
    7.845    4.2022
    7.980    3.7599
    8.115    4.0126
    8.250    4.1180
    8.385    3.8020
    8.520    3.9494
    8.655    3.8547
    8.790    3.9705
    8.925    3.9389
    9.060    3.8652
    9.195    4.0548
    9.330    3.9600
    9.465    4.0548
    9.600    4.2443
    9.735    3.8125
    9.870    4.1706
   10.005    4.0758
   10.140    4.2127
   10.275    4.5498
   10.410    4.3918
   10.545    4.5603
   10.680    4.1390
   10.815    4.2865
   10.950    4.5708
   11.085    4.8341
   11.220    4.4760
   11.355    4.8657
   11.490    4.9500
   11.625    4.6656
   11.760    4.6340
   11.895    5.0869
   12.030    5.1606
   12.165    5.1922
   12.300    5.2027
   12.435    5.0764
   12.570    5.3081
   12.705    5.6029
   12.840    5.7083
   12.975    5.7188
   13.110    6.1927
   13.245    5.7820
   13.380    6.1927
   13.515    5.9926
   13.650    6.1927
   13.785    6.1927
   13.920    6.8457
   14.055    6.5613
   14.190    6.7615
   14.325    6.8668
   14.460    6.8246
   14.595    6.4876
   14.730    7.2354
   14.865    7.2143
   15.000    7.5197
   15.135    7.7936
   15.270    8.3412
   15.405    8.0990
   15.540    9.1838
   15.675    8.4466
   15.810    9.2891
   15.945    9.3523
   16.080    9.6998
   16.215   10.2686
   16.350   10.0158
   16.485   10.2896
   16.620   10.5635
   16.755   10.8373
   16.890   11.1006
   17.025   11.3007
   17.160   11.6798
   17.295   12.4908
   17.430   12.6172
   17.565   12.4908
   17.700   12.5434
   17.835   13.0068
   17.970   13.8494
   18.105   13.9968
   18.240   14.3760
   18.375   14.3760
   18.510   14.7657
   18.645   15.1764
   18.780   14.9026
   18.915   14.6709
   19.050   14.9763
   19.185   14.9026
   19.320   15.2185
   19.455   15.3449
   19.590   14.1864
   19.725   14.9974
   19.860   14.6709
   19.995   15.1869
   20.130   14.7130
   20.265   15.2080
   20.400   14.6603
   20.535   14.1654
   20.670   14.3339
   20.805   14.8605
   20.940   13.9547
   21.075   13.4597
   21.210   13.9547
   21.345   13.1016
   21.480   13.5650
   21.615   13.0700
   21.750   13.3228
   21.885   13.1859
   22.020   12.5645
   22.155   12.4487
   22.290   12.7330
   22.425   12.3223
   22.560   11.6588
   22.695   12.0695
   22.830   12.0274
   22.965   11.7957
   23.100   11.9221
   23.235   11.8167
   23.370   11.2586
   23.505   10.9637
   23.640   10.9637
   23.775   11.1638
   23.910   10.3107
   24.045   10.5213
   24.180   10.3002
   24.315   10.0790
   24.450    9.8262
   24.585    9.8578
   24.720   10.6477
   24.855    9.9105
   24.990    9.6893
   25.125    9.8157
   25.260    9.8578
   25.395    9.6472
   25.530    9.8894
   25.665    9.0363
   25.800    9.3523
   25.935    9.0153
   26.070    9.0047
   26.205    8.8362
   26.340    9.0258
   26.475    8.6151
   26.610    8.4571
   26.745    8.6361
   26.880    8.5413
   27.015    8.9415
   27.150    8.4360
   27.285    8.2254
   27.420    8.4571
   27.555    8.0990
   27.690    7.9726
   27.825    8.0253
   27.960    8.0885
   28.095    8.0042
   28.230    7.6567
   28.365    7.5092
   28.500    7.6461
   28.635    7.6356
   28.770    7.3723
   28.905    7.1827
   29.040    7.3618
   29.175    7.3302
   29.310    7.1933
   29.445    6.9300
   29.580    6.9405
   29.715    6.8141
   29.850    6.6561
   29.985    7.1933
   30.120    6.6983
   30.255    6.6561
   30.390    6.7509
   30.525    6.4666
   30.660    6.4982
   30.795    6.3296
   30.930    6.4139
   31.065    6.4560
   31.200    6.3296
   31.335    6.8141
   31.470    6.2875
   31.605    5.8978
   31.740    6.0242
   31.875    5.8978
   32.010    5.7715
   32.145    5.5819
   32.280    5.3081
   32.415    5.5398
   32.550    5.7504
   32.685    5.2659
   32.820    5.4871
   32.955    5.2659
   33.090    5.1817
   33.225    5.0026
   33.360    5.2449
   33.495    5.1817
   33.630    5.0448
   33.765    5.2238
   33.900    4.8973
   34.035    4.5392
   34.170    4.9921
   34.305    4.8868
   34.440    4.4550
   34.575    4.7815
   34.710    4.7288
   34.845    4.8763
   34.980    4.1706
   35.115    4.5603
   35.250    4.3813
   35.385    4.3602
   35.520    4.4128
   35.655    4.3497
   35.790    4.1917
   35.925    4.1180
   36.060    4.0548
   36.195    3.9600
   36.330    4.0758
   36.465    4.1706
   36.600    4.1496
   36.735    3.6651
   36.870    3.9916
   37.005    3.6651
   37.140    3.9705
   37.275    3.8441
   37.410    3.6862
   37.545    3.8231
   37.680    3.6862
   37.815    3.8231
   37.950    3.7177
   38.085    3.5914
   38.220    3.7388
   38.355    3.8441
   38.490    3.6335
   38.625    3.7283
   38.760    3.8020
   38.895    3.6862
   39.030    3.4755
   39.165    3.7493
   39.300    3.3597
   39.435    3.5387
   39.570    3.4966
   39.705    3.5387
   39.840    3.2122
   39.975    3.4650
   39.990    3.5808