File: data/PXRD/PXRD_KE-320_Cu-Ka1_capillary-1mm_3s-deg.xyd
    1.500   18.2377
    1.635   15.6398
    1.770   13.8494
    1.905   11.5675
    2.040    9.5313
    2.175    8.6010
    2.310    8.3026
    2.445    6.7579
    2.580    6.3367
    2.715    5.9329
    2.850    5.5468
    2.985    5.7048
    3.120    4.8798
    3.255    5.0553
    3.390    4.7920
    3.525    4.6165
    3.660    4.6340
    3.795    4.3005
    3.930    4.0548
    4.065    4.2654
    4.200    4.1074
    4.335    3.8090
    4.470    3.6862
    4.605    3.7739
    4.740    3.8090
    4.875    3.3526
    5.010    3.6159
    5.145    3.9494
    5.280    3.6862
    5.415    3.7915
    5.550    3.4931
    5.685    3.5106
    5.820    3.7564
    5.955    3.3877
    6.090    3.5106
    6.225    3.4580
    6.360    3.3877
    6.495    3.4931
    6.630    3.4931
    6.765    3.4931
    6.900    3.1420
    7.035    3.3351
    7.170    3.5457
    7.305    3.5808
    7.440    3.5282
    7.575    3.4755
    7.710    3.3702
    7.845    3.4755
    7.980    3.5984
    8.115    3.7564
    8.250    3.5808
    8.385    3.7739
    8.520    3.6159
    8.655    3.3351
    8.790    3.8792
    8.925    3.3000
    9.060    3.6335
    9.195    3.9670
    9.330    3.7739
    9.465    3.5984
    9.600    3.4580
    9.735    3.7388
    9.870    3.4053
   10.005    4.0021
   10.140    3.6862
   10.275    4.0899
   10.410    4.1074
   10.545    3.7037
   10.680    3.7739
   10.815    3.7213
   10.950    3.5984
   11.085    3.6335
   11.220    3.5808
   11.355    3.7037
   11.490    3.6510
   11.625    3.8266
   11.760    3.5282
   11.895    4.0899
   12.030    3.9319
   12.165    3.4053
   12.300    3.4755
   12.435    3.5633
   12.570    3.4053
   12.705    3.3877
   12.840    3.3702
   12.975    3.7564
   13.110    3.4404
   13.245    3.5808
   13.380    3.4755
   13.515    3.7388
   13.650    4.0899
   13.785    3.5984
   13.920    3.8968
   14.055    3.3702
   14.190    3.7213
   14.325    3.3351
   14.460    4.0021
   14.595    3.7564
   14.730    3.3175
   14.865    3.3000
   15.000    3.1596
   15.135    3.4755
   15.270    3.8441
   15.405    3.2824
   15.540    3.6510
   15.675    3.2122
   15.810    3.4755
   15.945    3.6686
   16.080    3.4404
   16.215    3.7037
   16.350    3.6159
   16.485    3.4053
   16.620    3.6510
   16.755    3.7564
   16.890    3.5106
   17.025    3.1596
   17.160    3.6862
   17.295    3.3702
   17.430    3.4229
   17.565    3.6862
   17.700    3.3877
   17.835    3.5984
   17.970    3.7739
   18.105    3.4931
   18.240    3.4755
   18.375    3.6335
   18.510    3.5633
   18.645    3.5457
   18.780    3.5633
   18.915    3.1771
   19.050    3.3526
   19.185    3.6686
   19.320    3.4404
   19.455    3.5808
   19.590    3.4931
   19.725    3.0718
   19.860    3.5106
   19.995    3.3877
   20.130    3.4053
   20.265    3.5282
   20.400    3.2649
   20.535    3.3526
   20.670    3.7564
   20.805    3.5633
   20.940    3.6510
   21.075    3.4404
   21.210    3.7915
   21.345    3.8968
   21.480    3.6335
   21.615    3.9319
   21.750    3.5106
   21.885    3.9494
   22.020    3.4404
   22.155    3.3351
   22.290    3.4229
   22.425    3.4931
   22.560    3.2473
   22.695    3.3000
   22.830    3.7564
   22.965    3.7739
   23.100    3.3175
   23.235    3.2649
   23.370    3.1947
   23.505    3.1069
   23.640    3.2649
   23.775    3.1771
   23.910    3.3175
   24.045    3.6510
   24.180    3.5106
   24.315    3.5282
   24.450    3.3877
   24.585    3.5282
   24.720    3.0016
   24.855    3.0893
   24.990    3.0718
   25.125    2.9138
   25.260    2.9489
   25.395    3.2473
   25.530    3.0191
   25.665    3.0016
   25.800    3.4755
   25.935    3.4580
   26.070    3.3877
   26.205    3.0893
   26.340    2.9665
   26.475    3.2824
   26.610    3.4053
   26.745    3.3526
   26.880    3.1771
   27.015    3.5633
   27.150    3.0191
   27.285    2.8612
   27.420    2.7558
   27.555    2.9138
   27.690    2.8085
   27.825    3.0542
   27.960    2.8963
   28.095    3.0542
   28.230    2.9840
   28.365    3.0893
   28.500    3.0542
   28.635    2.7909
   28.770    3.2122
   28.905    2.8085
   29.040    2.7207
   29.175    2.6681
   29.310    2.7207
   29.445    2.5628
   29.580    3.2649
   29.715    3.0367
   29.850    3.0893
   29.985    2.7032
   30.120    2.8963
   30.255    2.8085
   30.390    2.5452
   30.525    2.6154
   30.660    2.4574
   30.795    2.6681
   30.930    2.6505
   31.065    2.7734
   31.200    2.5276
   31.335    2.4574
   31.470    3.0016
   31.605    2.2643
   31.740    2.4925
   31.875    2.2819
   32.010    2.6505
   32.145    2.4574
   32.280    2.7383
   32.415    2.6154
   32.550    2.0888
   32.685    2.3697
   32.820    2.7734
   32.955    2.4223
   33.090    2.4925
   33.225    2.6154
   33.360    2.4925
   33.495    2.5803
   33.630    2.2292
   33.765    2.0888
   33.900    2.3170
   34.035    2.0186
   34.170    2.2995
   34.305    2.2995
   34.440    2.4048
   34.575    2.5101
   34.710    2.3872
   34.845    2.2468
   34.980    2.2643
   35.115    2.2995
   35.250    2.4048
   35.385    2.1415
   35.520    2.4048
   35.655    2.4925
   35.790    2.1590
   35.925    1.9133
   36.060    2.2468
   36.195    2.2643
   36.330    2.0362
   36.465    2.1766
   36.600    1.8957
   36.735    2.4574
   36.870    1.9484
   37.005    1.9835
   37.140    2.0186
   37.275    2.0537
   37.410    2.0537
   37.545    1.9484
   37.680    1.9308
   37.815    1.9835
   37.950    2.1415
   38.085    1.8957
   38.220    2.0186
   38.355    2.1064
   38.490    2.2117
   38.625    2.3872
   38.760    1.8606
   38.895    1.9659
   39.030    2.0011
   39.165    1.9308
   39.300    2.1239
   39.435    1.8606
   39.570    1.9835
   39.705    1.7904
   39.840    1.9659
   39.975    1.9308
   39.990    1.8255