File: data/PXRD/PXRD_KE-275_Cu-Ka1_film-3mm_3s-deg.xyd
    1.500   15.4292
    1.635   14.6217
    1.770   12.0590
    1.905   11.6377
    2.040   11.1638
    2.175   10.7952
    2.310   10.7952
    2.445    9.9702
    2.580    9.7069
    2.715    9.6893
    2.850    9.4260
    2.985    9.1803
    3.120    9.9877
    3.255   10.2159
    3.390   10.4616
    3.525   13.5861
    3.660   20.8882
    3.795   39.3716
    3.930    9.4436
    4.065    9.1452
    4.200    8.2324
    4.335    8.0393
    4.470    9.2505
    4.605    8.3377
    4.740    8.1271
    4.875    8.8292
    5.010    9.1627
    5.145    9.5664
    5.280   11.0233
    5.415   13.0420
    5.550   10.9180
    5.685   11.0936
    5.820    9.3031
    5.955    8.3904
    6.090    8.4255
    6.225    8.4781
    6.360    7.9516
    6.495    8.3728
    6.630    7.8989
    6.765    7.1792
    6.900    6.8282
    7.035    6.6526
    7.170    6.4595
    7.305    6.3893
    7.440    6.6877
    7.575    6.8106
    7.710    5.8101
    7.845    5.8627
    7.980    5.6697
    8.115    5.8276
    8.250    5.5994
    8.385    5.5292
    8.520    6.0383
    8.655    5.7750
    8.790    5.0553
    8.925    5.4766
    9.060    5.1957
    9.195    5.0553
    9.330    5.5468
    9.465    5.0377
    9.600    5.3537
    9.735    5.3888
    9.870    4.7218
   10.005    5.3010
   10.140    6.0207
   10.275    5.0202
   10.410    5.5994
   10.545    5.4590
   10.680    5.4239
   10.815    5.5994
   10.950    5.3361
   11.085    5.3888
   11.220    5.7048
   11.355    5.4064
   11.490    5.4590
   11.625    5.2484
   11.760    5.6345
   11.895    5.0904
   12.030    5.4064
   12.165    5.0377
   12.300    5.5117
   12.435    5.1957
   12.570    4.7218
   12.705    5.2659
   12.840    4.8798
   12.975    4.9149
   13.110    4.5814
   13.245    4.9851
   13.380    4.7393
   13.515    4.8973
   13.650    4.8271
   13.785    5.1080
   13.920    4.8447
   14.055    4.9500
   14.190    5.1431
   14.325    5.5292
   14.460    5.2308
   14.595    5.2308
   14.730    4.6516
   14.865    4.9851
   15.000    4.8622
   15.135    5.0026
   15.270    5.0904
   15.405    4.7042
   15.540    4.6165
   15.675    4.6165
   15.810    4.4585
   15.945    4.6691
   16.080    4.8973
   16.215    5.0904
   16.350    4.9500
   16.485    4.8095
   16.620    4.5638
   16.755    4.7393
   16.890    4.4585
   17.025    4.4409
   17.160    4.6340
   17.295    4.7393
   17.430    4.9149
   17.565    5.0377
   17.700    5.1080
   17.835    4.7042
   17.970    4.6691
   18.105    4.8447
   18.240    5.0377
   18.375    4.4936
   18.510    4.8447
   18.645    4.4936
   18.780    4.9324
   18.915    4.9149
   19.050    4.5463
   19.185    4.3005
   19.320    4.3532
   19.455    4.2478
   19.590    4.3532
   19.725    4.7569
   19.860    4.5638
   19.995    4.4234
   20.130    4.1425
   20.265    4.0021
   20.400    4.4585
   20.535    4.4409
   20.670    4.3005
   20.805    4.3356
   20.940    3.7213
   21.075    4.0548
   21.210    4.4585
   21.345    4.1601
   21.480    4.7042
   21.615    4.4585
   21.750    4.1074
   21.885    3.9494
   22.020    4.4936
   22.155    4.2478
   22.290    4.3532
   22.425    4.3883
   22.560    3.8617
   22.695    3.6862
   22.830    3.9846
   22.965    3.8090
   23.100    3.8266
   23.235    3.4931
   23.370    4.0197
   23.505    4.0899
   23.640    3.7388
   23.775    3.9846
   23.910    3.8090
   24.045    3.6510
   24.180    3.7388
   24.315    3.5633
   24.450    3.2122
   24.585    3.4931
   24.720    3.7037
   24.855    3.3526
   24.990    3.6510
   25.125    3.5282
   25.260    3.3175
   25.395    3.6335
   25.530    3.4755
   25.665    3.7915
   25.800    3.1245
   25.935    3.8266
   26.070    3.1069
   26.205    3.1947
   26.340    3.5457
   26.475    3.1771
   26.610    3.1245
   26.745    3.3000
   26.880    3.4404
   27.015    3.0718
   27.150    3.1596
   27.285    3.2649
   27.420    2.8436
   27.555    2.7383
   27.690    2.8436
   27.825    2.7734
   27.960    2.8963
   28.095    2.9840
   28.230    2.9314
   28.365    3.0016
   28.500    3.1069
   28.635    2.7909
   28.770    3.1069
   28.905    3.0191
   29.040    3.1069
   29.175    2.7032
   29.310    3.1596
   29.445    2.9314
   29.580    2.7207
   29.715    2.7032
   29.850    2.5276
   29.985    2.4750
   30.120    2.4574
   30.255    2.2643
   30.390    2.5628
   30.525    2.4925
   30.660    2.2292
   30.795    2.3521
   30.930    2.3697
   31.065    2.2995
   31.200    2.2819
   31.335    2.0537
   31.470    2.4750
   31.605    2.0537
   31.740    2.2819
   31.875    2.2643
   32.010    2.2468
   32.145    2.1941
   32.280    2.3170
   32.415    2.2292
   32.550    2.1239
   32.685    1.9308
   32.820    2.2819
   32.955    2.1941
   33.090    2.2292
   33.225    2.0537
   33.360    2.3346
   33.495    2.2468
   33.630    2.3697
   33.765    1.8431
   33.900    1.9835
   34.035    2.3697
   34.170    2.0186
   34.305    2.0537
   34.440    2.2292
   34.575    1.9308
   34.710    2.0362
   34.845    2.2819
   34.980    1.8957
   35.115    1.9835
   35.250    1.8431
   35.385    2.0011
   35.520    1.9133
   35.655    2.1590
   35.790    1.9133
   35.925    1.8080
   36.060    2.0011
   36.195    1.9484
   36.330    1.8957
   36.465    1.9484
   36.600    2.1064
   36.735    1.6324
   36.870    1.7553
   37.005    2.0888
   37.140    2.0888
   37.275    2.0011
   37.410    1.8255
   37.545    1.7729
   37.680    1.6149
   37.815    1.9133
   37.950    1.8431
   38.085    1.7027
   38.220    1.9659
   38.355    1.7904
   38.490    2.1415
   38.625    1.8957
   38.760    1.4218
   38.895    1.7729
   39.030    1.8255
   39.165    1.7027
   39.300    1.9308
   39.435    1.7729
   39.570    2.0011
   39.705    1.7027
   39.840    1.5798
   39.975    1.4920
   39.990    1.7378