File: data/PXRD/PXRD_KE-197_Cu-Ka1_capillary-1mm_5s-deg.xyd
    1.500   18.6730
    1.635   16.5561
    1.770   14.2601
    1.905   11.9642
    2.040   10.9110
    2.175    9.9315
    2.310    9.3944
    2.445    9.0785
    2.580    9.6051
    2.715   11.5429
    2.850   14.2707
    2.985   19.6209
    3.120   31.9642
    3.255   54.1443
    3.390  107.8146
    3.525   58.6519
    3.660   23.5492
    3.795   27.3407
    3.930   37.4513
    4.065   43.1385
    4.200   35.9979
    4.335   21.1269
    4.470   10.9005
    4.605    7.6777
    4.740    5.7925
    4.875    4.9816
    5.010    4.1811
    5.145    4.1706
    5.280    4.2022
    5.415    3.6124
    5.550    3.5387
    5.685    3.5387
    5.820    3.6230
    5.955    3.4229
    6.090    3.0016
    6.225    3.3281
    6.360    3.3070
    6.495    3.5071
    6.630    4.3391
    6.765    6.5613
    6.900   13.6493
    7.035    7.7093
    7.170    4.0337
    7.305    4.0021
    7.440    3.8757
    7.575    3.4334
    7.710    3.9284
    7.845    4.5182
    7.980    5.0342
    8.115    5.4660
    8.250    6.1611
    8.385    6.1295
    8.520    6.1295
    8.655    4.8552
    8.790    4.4128
    8.925    3.7388
    9.060    3.2543
    9.195    3.0437
    9.330    3.4229
    9.465    3.0437
    9.600    3.1490
    9.735    3.1912
    9.870    2.9700
   10.005    3.1385
   10.140    3.1490
   10.275    3.0121
   10.410    3.3702
   10.545    3.0332
   10.680    2.7067
   10.815    3.2333
   10.950    2.8225
   11.085    3.1701
   11.220    3.1069
   11.355    3.1596
   11.490    2.9595
   11.625    3.1280
   11.760    2.9805
   11.895    3.2859
   12.030    2.9489
   12.165    3.1385
   12.300    3.2859
   12.435    3.8125
   12.570    3.5071
   12.705    3.6862
   12.840    3.8863
   12.975    3.6967
   13.110    3.4650
   13.245    3.1596
   13.380    3.1490
   13.515    3.2543
   13.650    3.4860
   13.785    3.1596
   13.920    3.3597
   14.055    3.3070
   14.190    3.2649
   14.325    3.1174
   14.460    2.7383
   14.595    2.9384
   14.730    2.8541
   14.865    2.6540
   15.000    2.9700
   15.135    2.8331
   15.270    2.7593
   15.405    2.9489
   15.540    3.0226
   15.675    3.1490
   15.810    3.0016
   15.945    3.2754
   16.080    3.0648
   16.215    2.9595
   16.350    2.7488
   16.485    2.6646
   16.620    2.9595
   16.755    3.0121
   16.890    2.9279
   17.025    2.9068
   17.160    3.1069
   17.295    3.1174
   17.430    3.0121
   17.565    2.8436
   17.700    3.1806
   17.835    2.9805
   17.970    3.1806
   18.105    3.0121
   18.240    3.3070
   18.375    2.9384
   18.510    2.9805
   18.645    3.0437
   18.780    3.1174
   18.915    3.2227
   19.050    2.9279
   19.185    3.3070
   19.320    2.9595
   19.455    3.3175
   19.590    3.3175
   19.725    3.4439
   19.860    3.2859
   19.995    3.3913
   20.130    3.0964
   20.265    3.5914
   20.400    3.5703
   20.535    3.6335
   20.670    3.3070
   20.805    3.3386
   20.940    3.0437
   21.075    3.6546
   21.210    3.0964
   21.345    3.4755
   21.480    3.2543
   21.615    3.5282
   21.750    3.1806
   21.885    3.5387
   22.020    3.5703
   22.155    2.9068
   22.290    3.3386
   22.425    3.2017
   22.560    3.4439
   22.695    3.2754
   22.830    3.0858
   22.965    3.1596
   23.100    3.1596
   23.235    3.1806
   23.370    3.1596
   23.505    3.2649
   23.640    3.3597
   23.775    3.1806
   23.910    3.4018
   24.045    3.3702
   24.180    3.0226
   24.315    3.0332
   24.450    3.1701
   24.585    3.3175
   24.720    3.2543
   24.855    3.0332
   24.990    3.0121
   25.125    3.4018
   25.260    3.1069
   25.395    3.0542
   25.530    2.8436
   25.665    3.0648
   25.800    2.7909
   25.935    2.8647
   26.070    2.8120
   26.205    2.8225
   26.340    2.8857
   26.475    2.7172
   26.610    2.8120
   26.745    2.8015
   26.880    2.7804
   27.015    2.7278
   27.150    2.5803
   27.285    2.7488
   27.420    2.7804
   27.555    2.6856
   27.690    2.7278
   27.825    3.0332
   27.960    2.7278
   28.095    3.0226
   28.230    2.8647
   28.365    2.6962
   28.500    2.8436
   28.635    2.6540
   28.770    2.6751
   28.905    2.6856
   29.040    2.5803
   29.175    2.6119
   29.310    2.6435
   29.445    2.6119
   29.580    2.7488
   29.715    2.4539
   29.850    2.6962
   29.985    2.7804
   30.120    2.7067
   30.255    2.4118
   30.390    2.6540
   30.525    2.4855
   30.660    2.6224
   30.795    2.5908
   30.930    2.5171
   31.065    2.6119
   31.200    2.8331
   31.335    2.7488
   31.470    2.5276
   31.605    2.6014
   31.740    2.6751
   31.875    2.7278
   32.010    2.5487
   32.145    2.6540
   32.280    2.3907
   32.415    2.6435
   32.550    2.4750
   32.685    2.3381
   32.820    2.4223
   32.955    2.4329
   33.090    2.2433
   33.225    2.5171
   33.360    2.4855
   33.495    2.4855
   33.630    2.2854
   33.765    2.3907
   33.900    2.3591
   34.035    2.4539
   34.170    2.3065
   34.305    2.2328
   34.440    2.0748
   34.575    2.2117
   34.710    2.1906
   34.845    2.1696
   34.980    2.4013
   35.115    2.2117
   35.250    2.2433
   35.385    2.4118
   35.520    2.1906
   35.655    2.0748
   35.790    2.0853
   35.925    2.0748
   36.060    2.0432
   36.195    2.0642
   36.330    2.1696
   36.465    2.1274
   36.600    2.2328
   36.735    2.2012
   36.870    2.0642
   37.005    2.2433
   37.140    2.2328
   37.275    2.1485
   37.410    2.0958
   37.545    2.2117
   37.680    2.1485
   37.815    2.1169
   37.950    2.2749
   38.085    2.0326
   38.220    2.1906
   38.355    1.7904
   38.490    2.0326
   38.625    1.9063
   38.760    2.0537
   38.895    2.1274
   39.030    1.8536
   39.165    2.0853
   39.300    1.9695
   39.435    2.1801
   39.570    2.1696
   39.705    2.1064
   39.840    2.1380
   39.975    1.8431
   39.990    1.9905