File: data/PXRD/PXRD_KE-340_Cu-Ka1_capillary-1mm_3s-deg_MOCOF-1.xyd
    1.500    1.6675
    1.665    2.0537
    1.830    1.8080
    1.995    1.8080
    2.160    1.6324
    2.325    1.6149
    2.490    1.3691
    2.655    1.3340
    2.820    1.3691
    2.985    1.7027
    3.150    1.8957
    3.315    2.5276
    3.480    4.6691
    3.645    8.5659
    3.810   26.6280
    3.975    1.9133
    4.140    1.1936
    4.305    1.0532
    4.470    1.0707
    4.635    1.3165
    4.800    1.1058
    4.965    1.1234
    5.130    1.3867
    5.295    2.6505
    5.460    7.5654
    5.625    1.2112
    5.790    1.0707
    5.955    1.1058
    6.120    1.1234
    6.285    0.7723
    6.450    1.1058
    6.615    1.1936
    6.780    1.1761
    6.945    0.9303
    7.110    1.0707
    7.275    1.1058
    7.440    1.0883
    7.605    1.3165
    7.770    3.1947
    7.935    1.1585
    8.100    1.0707
    8.265    0.8250
    8.430    1.0005
    8.595    1.1585
    8.760    1.1058
    8.925    0.8777
    9.090    0.9654
    9.255    1.2287
    9.420    1.4569
    9.585    2.0186
    9.750    1.1234
    9.915    1.1058
   10.080    0.7021
   10.245    1.5447
   10.410    1.1936
   10.575    1.0005
   10.740    0.8952
   10.905    1.0883
   11.070    1.4218
   11.235    1.1058
   11.400    0.8074
   11.565    1.0005
   11.730    1.9484
   11.895    0.8250
   12.060    1.0005
   12.225    0.9128
   12.390    1.4394
   12.555    0.9654
   12.720    0.9479
   12.885    1.2814
   13.050    0.7021
   13.215    0.9654
   13.380    1.1410
   13.545    1.4042
   13.710    0.8425
   13.875    0.8952
   14.040    1.1234
   14.205    0.8425
   14.370    0.9654
   14.535    1.0532
   14.700    0.9303
   14.865    1.0005
   15.030    1.0883
   15.195    1.0005
   15.360    0.7548
   15.525    0.8601
   15.690    0.8952
   15.855    1.0005
   16.020    1.0181
   16.185    0.8425
   16.350    0.9479
   16.515    0.9128
   16.680    1.0356
   16.845    0.8777
   17.010    1.2112
   17.175    0.7899
   17.340    1.0005
   17.505    1.1936
   17.670    0.9830
   17.835    0.8777
   18.000    1.2463
   18.165    0.8601
   18.330    0.9654
   18.495    1.0532
   18.660    0.8074
   18.825    0.9479
   18.990    0.7899
   19.155    0.9830
   19.320    1.0532
   19.485    0.8777
   19.650    0.8777
   19.815    0.8601
   19.980    1.0005
   20.145    0.9303
   20.310    1.1410
   20.475    0.9830
   20.640    0.8250
   20.805    0.8952
   20.970    0.9128
   21.135    0.9654
   21.300    1.0356
   21.465    0.9830
   21.630    0.9303
   21.795    1.1585
   21.960    0.8074
   22.125    1.0532
   22.290    1.0005
   22.455    0.8952
   22.620    1.1410
   22.785    0.9830
   22.950    1.2814
   23.115    1.0181
   23.280    1.2638
   23.445    0.8952
   23.610    0.8777
   23.775    1.0005
   23.940    0.9654
   24.105    0.8952
   24.270    0.8601
   24.435    0.8074
   24.600    0.9128
   24.765    0.9654
   24.930    1.1234
   25.095    0.9479
   25.260    0.9303
   25.425    0.8074
   25.590    1.0883
   25.755    1.1058
   25.920    0.8952
   26.085    0.8777
   26.250    0.9128
   26.415    1.0181
   26.580    0.9128
   26.745    0.9479
   26.910    0.8074
   27.075    1.0356
   27.240    0.8601
   27.405    0.9128
   27.570    1.0707
   27.735    0.7372
   27.900    0.9479
   28.065    0.7899
   28.230    0.9830
   28.395    0.9654
   28.560    0.6495
   28.725    0.8952
   28.890    0.8601
   29.055    0.7723
   29.220    0.9128
   29.385    0.9830
   29.550    0.8074
   29.715    0.8952
   29.880    0.8777
   30.045    1.0005
   30.210    0.9303
   30.375    0.9128
   30.540    0.7899
   30.705    0.8250
   30.870    0.7723
   31.035    0.6670
   31.200    0.8777
   31.365    0.9479
   31.530    0.7899
   31.695    0.6495
   31.860    0.7899
   32.025    0.6144
   32.190    0.8425
   32.355    0.7548
   32.520    0.6495
   32.685    0.7021
   32.850    0.7548
   33.015    0.8074
   33.180    0.6144
   33.345    0.5617
   33.510    0.7372
   33.675    0.6670
   33.840    0.8601
   34.005    0.6846
   34.170    0.4213
   34.335    0.7899
   34.500    0.6670
   34.665    0.4739
   34.830    0.6670
   34.995    0.5793
   35.160    0.5968
   35.325    0.6319
   35.490    0.4739
   35.655    0.6144
   35.820    0.6144
   35.985    0.4915
   36.150    0.6319
   36.315    0.4564
   36.480    0.7197
   36.645    0.3862
   36.810    0.4037
   36.975    0.5090
   37.140    0.6144
   37.305    0.4915
   37.470    0.4564
   37.635    0.6144
   37.800    0.5090
   37.965    0.4915
   38.130    0.5266
   38.295    0.4564
   38.460    0.5793
   38.625    0.5617
   38.790    0.4037
   38.955    0.4388
   39.120    0.6319
   39.285    0.4213
   39.450    0.5793
   39.615    0.5793
   39.780    0.4037
   39.945    0.4388
   40.110    0.4739
   40.275    0.4739
   40.440    0.4915
   40.605    0.5266
   40.770    0.4739
   40.935    0.5266
   41.100    0.4564
   41.265    0.4388
   41.430    0.5090
   41.595    0.6495
   41.760    0.3511
   41.925    0.4388
   42.090    0.5266
   42.255    0.4739
   42.420    0.4915
   42.585    0.5266
   42.750    0.4564
   42.915    0.4739
   43.080    0.4739
   43.245    0.5441
   43.410    0.6495
   43.575    0.4388
   43.740    0.4915
   43.905    0.6495
   44.070    0.5090
   44.235    0.4739
   44.400    0.4915
   44.565    0.4213
   44.730    0.5266
   44.895    0.5090
   45.060    0.4739
   45.225    0.4915
   45.390    0.6144
   45.555    0.3511
   45.720    0.3862
   45.885    0.5617
   46.050    0.4564
   46.215    0.4388
   46.380    0.4213
   46.545    0.4564
   46.710    0.2984
   46.875    0.5793
   47.040    0.4739
   47.205    0.3335
   47.370    0.3686
   47.535    0.4388
   47.700    0.5090
   47.865    0.4388
   48.030    0.3862
   48.195    0.3160
   48.360    0.5266
   48.525    0.4564
   48.690    0.4739
   48.855    0.5266
   49.020    0.4564
   49.185    0.3335
   49.350    0.3335
   49.515    0.4213
   49.680    0.4037
   49.845    0.3686
   49.980    0.4388