File: data/PXRD/PXRD_KE-305-2B_Cu-Ka1_capillary-1mm_3s-deg.xyd
    1.500   19.3435
    1.635   17.0967
    1.770   15.7978
    1.905   13.7441
    2.040   12.3574
    2.175   12.0941
    2.310   11.7957
    2.445   12.4451
    2.580   11.5850
    2.715   12.5154
    2.850   13.7090
    2.985   13.7792
    3.120   16.4121
    3.255   18.7467
    3.390   23.0999
    3.525   30.7530
    3.660   45.7258
    3.795   96.4894
    3.930   20.8882
    4.065    8.8643
    4.200    7.4601
    4.335    7.2670
    4.470    6.8106
    4.605    7.3547
    4.740    7.6356
    4.875    7.5127
    5.010    7.8462
    5.145    8.9696
    5.280   10.3739
    5.415   17.1318
    5.550    8.7941
    5.685    6.6000
    5.820    7.1617
    5.955    6.5649
    6.090    6.9159
    6.225    7.0739
    6.360    7.3196
    6.495    8.0393
    6.630    9.7946
    6.765    9.8824
    6.900    6.2665
    7.035    6.4244
    7.170    6.7579
    7.305    6.8457
    7.440    6.9335
    7.575    7.4601
    7.710    9.8824
    7.845    7.0739
    7.980    6.5122
    8.115    5.8452
    8.250    6.1611
    8.385    6.1787
    8.520    6.5298
    8.655    6.6877
    8.790    6.0734
    8.925    6.2138
    9.060    6.3542
    9.195    7.4952
    9.330    8.7765
    9.465   15.3941
    9.600   10.7425
    9.735    6.1962
    9.870    6.6351
   10.005    6.3367
   10.140    7.7760
   10.275   13.4983
   10.410    6.4946
   10.545    6.0558
   10.680    5.9329
   10.815    7.0739
   10.950    9.3031
   11.085    7.8813
   11.220    5.4064
   11.355    6.1436
   11.490    7.3196
   11.625    9.0047
   11.760    8.4781
   11.895    6.1436
   12.030    5.6345
   12.165    5.7399
   12.300    6.6351
   12.435    5.9329
   12.570    5.8452
   12.705    5.8452
   12.840    7.2143
   12.975    9.7771
   13.110    5.5292
   13.245    5.8978
   13.380    5.3888
   13.515    7.7058
   13.650    5.7399
   13.785    5.4415
   13.920    6.2840
   14.055    7.9867
   14.190    6.0909
   14.325    5.6170
   14.460    5.0553
   14.595    5.0553
   14.730    5.5819
   14.865    5.5468
   15.000    5.9329
   15.135    5.8978
   15.270    5.9681
   15.405    5.6697
   15.540    5.9154
   15.675    5.9505
   15.810    5.9856
   15.945    5.3537
   16.080    7.2845
   16.215    6.0032
   16.350    5.3361
   16.485    5.8627
   16.620    7.4425
   16.755    5.5117
   16.890    6.1787
   17.025    9.0223
   17.160    5.7925
   17.295    5.7048
   17.430    5.7223
   17.565    5.8978
   17.700    5.5468
   17.835    5.6697
   17.970    6.1962
   18.105    5.6170
   18.240    5.6697
   18.375    7.3547
   18.510    5.7574
   18.645    5.4590
   18.780    6.1611
   18.915    5.8452
   19.050    6.1787
   19.185    6.1085
   19.320    5.8627
   19.455    6.2489
   19.590    7.4776
   19.725    6.1085
   19.860    5.7223
   19.995    6.2313
   20.130    5.7399
   20.265    6.7404
   20.400    8.9170
   20.535    6.2313
   20.670    6.2489
   20.805    5.8627
   20.940    5.9329
   21.075    5.7574
   21.210    6.5649
   21.345    6.2313
   21.480    6.1260
   21.615    6.0032
   21.750    6.4595
   21.885    7.4601
   22.020    6.3191
   22.155    6.9510
   22.290    6.5649
   22.425    6.7930
   22.560   10.2159
   22.695    6.6351
   22.830    8.1797
   22.965    9.1803
   23.100    6.4595
   23.235    7.7936
   23.370    6.4771
   23.505    6.2489
   23.640    5.5994
   23.775    6.4420
   23.910    7.8287
   24.045    6.4069
   24.180    6.5473
   24.315    6.0032
   24.450    6.5824
   24.585    6.5649
   24.720    6.4420
   24.855    6.6702
   24.990    6.0909
   25.125    6.2138
   25.260    6.6175
   25.395    6.3016
   25.530    6.9686
   25.665    6.2138
   25.800    8.7941
   25.935    6.7228
   26.070    6.1962
   26.205    5.7574
   26.340    6.2313
   26.475    6.4595
   26.610    6.0909
   26.745    5.6170
   26.880    5.8452
   27.015    7.0739
   27.150    6.3542
   27.285    5.8101
   27.420    5.7399
   27.555    6.4946
   27.690    6.1260
   27.825    5.7399
   27.960    6.3367
   28.095    5.7925
   28.230    6.7053
   28.365    5.6521
   28.500    6.8808
   28.635    5.5994
   28.770    5.5292
   28.905    5.6697
   29.040    5.5819
   29.175    5.9154
   29.310    6.7930
   29.445    5.7574
   29.580    5.3537
   29.715    5.7925
   29.850    5.7925
   29.985    5.7750
   30.120    5.5819
   30.255    5.5819
   30.390    5.3010
   30.525    5.3712
   30.660    5.0904
   30.795    5.1255
   30.930    5.4239
   31.065    4.9149
   31.200    4.8447
   31.335    5.3186
   31.470    5.2133
   31.605    5.0728
   31.740    5.2835
   31.875    5.3712
   32.010    4.9851
   32.145    5.1255
   32.280    5.0026
   32.415    4.8622
   32.550    4.8271
   32.685    4.7393
   32.820    4.6165
   32.955    5.1606
   33.090    5.0026
   33.225    5.0553
   33.360    4.5287
   33.495    5.2484
   33.630    5.3537
   33.765    4.5111
   33.900    5.0553
   34.035    4.7218
   34.170    4.8973
   34.305    5.1080
   34.440    4.8447
   34.575    4.3532
   34.710    4.4409
   34.845    4.8271
   34.980    4.6340
   35.115    3.8968
   35.250    4.3707
   35.385    4.8095
   35.520    4.1952
   35.655    4.4058
   35.790    4.4585
   35.925    4.5287
   36.060    4.2830
   36.195    4.3883
   36.330    4.1250
   36.465    4.4760
   36.600    4.4058
   36.735    4.7569
   36.870    4.3707
   37.005    4.3883
   37.140    4.8095
   37.275    4.4234
   37.410    4.6516
   37.545    4.5287
   37.680    4.3181
   37.815    4.2303
   37.950    4.0197
   38.085    3.8617
   38.220    4.0548
   38.355    4.2127
   38.490    4.1425
   38.625    4.1074
   38.760    4.5638
   38.895    4.1776
   39.030    4.1250
   39.165    3.8441
   39.300    4.4409
   39.435    3.8441
   39.570    3.9846
   39.705    3.9143
   39.840    4.3181
   39.975    3.8792
   39.990    4.5463