File: data/PXRD/PXRD_KE-052_Cu-Ka1_capillary-1mm_5s-deg.xyd
    1.500   23.6335
    1.635   21.2006
    1.770   20.0632
    1.905   18.6098
    2.040   17.7146
    2.175   17.0195
    2.310   15.9663
    2.445   15.9558
    2.580   15.5345
    2.715   15.1237
    2.850   15.5556
    2.985   16.4824
    3.120   17.9463
    3.255   19.4945
    3.390   21.9695
    3.525   27.4355
    3.660   35.4081
    3.795   54.6604
    3.930   94.3444
    4.065   11.5429
    4.200   10.1211
    4.335    9.2996
    4.470    9.1417
    4.605    9.3312
    4.740    9.4892
    4.875    9.2786
    5.010   10.2791
    5.145   11.5324
    5.280   13.9442
    5.415   20.0316
    5.550   31.2270
    5.685    8.7520
    5.820    8.4992
    5.955    8.0779
    6.090    7.3828
    6.225    8.1201
    6.360    8.1938
    6.495    8.4781
    6.630    9.3102
    6.765   11.4060
    6.900    7.9305
    7.035    7.3723
    7.170    8.3412
    7.305    7.8568
    7.440    8.1201
    7.575    8.0885
    7.710   10.4265
    7.845   13.3333
    7.980    7.9410
    8.115    7.6777
    8.250    7.9831
    8.385    7.7620
    8.520    7.4882
    8.655    8.2149
    8.790    8.2570
    8.925    8.4255
    9.060    8.2043
    9.195    8.7414
    9.330    9.6261
    9.465   12.9121
    9.600   20.6530
    9.735    8.8257
    9.870    8.1306
   10.005    8.0885
   10.140    8.4887
   10.275    9.4471
   10.410   10.0895
   10.545    8.4255
   10.680    8.0463
   10.815    8.0253
   10.950    8.8784
   11.085   11.9958
   11.220    8.2570
   11.355    7.4776
   11.490    7.8778
   11.625    8.2359
   11.760    9.9947
   11.895    7.4882
   12.030    7.6145
   12.165    7.3618
   12.300    7.3302
   12.435    7.6883
   12.570    6.9300
   12.705    7.5408
   12.840    7.3196
   12.975    8.5203
   13.110    7.0563
   13.245    7.1301
   13.380    7.0985
   13.515    7.4671
   13.650    7.0458
   13.785    6.7720
   13.920    6.9826
   14.055    7.8146
   14.190    7.9937
   14.325    7.0248
   14.460    6.7930
   14.595    7.2670
   14.730    6.6035
   14.865    6.8562
   15.000    6.7404
   15.135    7.0037
   15.270    7.1511
   15.405    6.9932
   15.540    6.8668
   15.675    6.2243
   15.810    6.6351
   15.945    6.3402
   16.080    6.8141
   16.215    7.4776
   16.350    6.4771
   16.485    7.0248
   16.620    6.5087
   16.755    6.8668
   16.890    6.5192
   17.025    7.6251
   17.160    8.0674
   17.295    6.9932
   17.430    6.8878
   17.565    7.4144
   17.700    6.8668
   17.835    6.7088
   17.970    7.1617
   18.105    6.7193
   18.240    6.7720
   18.375    7.0458
   18.510    6.6772
   18.645    6.8352
   18.780    7.2143
   18.915    7.1511
   19.050    7.0879
   19.185    6.8562
   19.320    6.8352
   19.455    6.6772
   19.590    7.3091
   19.725    7.4355
   19.860    7.1301
   19.995    6.5298
   20.130    7.1511
   20.265    7.0353
   20.400    7.9200
   20.535    7.2249
   20.670    7.1617
   20.805    6.6351
   20.940    7.1933
   21.075    7.2565
   21.210    7.4144
   21.345    7.0669
   21.480    6.6245
   21.615    7.0985
   21.750    7.2143
   21.885    7.6672
   22.020    7.0142
   22.155    7.0353
   22.290    7.3091
   22.425    7.4671
   22.560    8.5308
   22.695    7.9831
   22.830    7.7830
   22.965    8.6783
   23.100    7.3091
   23.235    7.6777
   23.370    7.7199
   23.505    6.9932
   23.640    6.8878
   23.775    6.9510
   23.910    7.5829
   24.045    6.9089
   24.180    7.1722
   24.315    7.0353
   24.450    7.2670
   24.585    6.9300
   24.720    6.6561
   24.855    7.0879
   24.990    6.7299
   25.125    7.0142
   25.260    7.1301
   25.395    6.8562
   25.530    6.9194
   25.665    7.6356
   25.800    7.3196
   25.935    7.8252
   26.070    6.8562
   26.205    6.8878
   26.340    6.9089
   26.475    6.8457
   26.610    6.9194
   26.745    7.0353
   26.880    7.1827
   27.015    7.0563
   27.150    6.6561
   27.285    6.7193
   27.420    6.5719
   27.555    6.6561
   27.690    6.7509
   27.825    6.5508
   27.960    6.7193
   28.095    6.8352
   28.230    6.7193
   28.365    6.7193
   28.500    6.7404
   28.635    6.1085
   28.770    6.1822
   28.905    6.0664
   29.040    6.6351
   29.175    6.3507
   29.310    6.5403
   29.445    6.3296
   29.580    6.5192
   29.715    6.0453
   29.850    6.5087
   29.985    6.0769
   30.120    5.8031
   30.255    6.0664
   30.390    6.0032
   30.525    5.7925
   30.660    6.1822
   30.795    6.4560
   30.930    5.8136
   31.065    6.1822
   31.200    5.6661
   31.335    5.8873
   31.470    5.9084
   31.605    5.8136
   31.740    6.3612
   31.875    5.9821
   32.010    5.8557
   32.145    6.0137
   32.280    6.0453
   32.415    5.3397
   32.550    5.7293
   32.685    5.8136
   32.820    5.6029
   32.955    6.2665
   33.090    5.5187
   33.225    5.6872
   33.360    6.1190
   33.495    5.3818
   33.630    5.8031
   33.765    5.6767
   33.900    5.7820
   34.035    6.3612
   34.170    5.5082
   34.305    5.0869
   34.440    5.5292
   34.575    5.0132
   34.710    5.5608
   34.845    5.3818
   34.980    5.3291
   35.115    4.9816
   35.250    5.4028
   35.385    4.8552
   35.520    5.1080
   35.655    5.0869
   35.790    5.1711
   35.925    4.8131
   36.060    5.0132
   36.195    5.3502
   36.330    5.1501
   36.465    5.1185
   36.600    5.3607
   36.735    5.0764
   36.870    4.7499
   37.005    5.3397
   37.140    5.5082
   37.275    5.0448
   37.410    5.0026
   37.545    5.1501
   37.680    5.1817
   37.815    4.8025
   37.950    5.0342
   38.085    5.0026
   38.220    5.2765
   38.355    5.0026
   38.490    5.1290
   38.625    5.0342
   38.760    5.1080
   38.895    5.0869
   39.030    4.8657
   39.165    4.9289
   39.300    5.0869
   39.435    4.9289
   39.570    4.8657
   39.705    4.7815
   39.840    5.1711
   39.975    4.9184
   39.990    5.1395