File: data/PXRD/PXRD_KE-108_Cu-Ka1_capillary-1mm_5s-deg.xyd
    1.500   14.0284
    1.635   12.7330
    1.770   11.0163
    1.905   10.2159
    2.040    8.9731
    2.175    8.3518
    2.310    7.4987
    2.445    6.6140
    2.580    6.3191
    2.715    6.1085
    2.850    6.2349
    2.985    5.5819
    3.120    5.5714
    3.255    5.1817
    3.390    5.4239
    3.525    5.4134
    3.660    5.1711
    3.795    5.4344
    3.930    5.4871
    4.065    5.2870
    4.200    4.9184
    4.335    5.0448
    4.470    5.1501
    4.605    5.0974
    4.740    5.0026
    4.875    4.9500
    5.010    4.9921
    5.145    4.8025
    5.280    4.8341
    5.415    5.2343
    5.550    4.8341
    5.685    4.8447
    5.820    4.7499
    5.955    4.8973
    6.090    4.4444
    6.225    4.8973
    6.360    4.8552
    6.495    5.1185
    6.630    4.8552
    6.765    4.8131
    6.900    4.8763
    7.035    5.1290
    7.170    4.8447
    7.305    4.8341
    7.440    4.9184
    7.575    4.7920
    7.710    5.2870
    7.845    4.8341
    7.980    5.0974
    8.115    4.7183
    8.250    5.1817
    8.385    4.8657
    8.520    5.4976
    8.655    5.2133
    8.790    5.2975
    8.925    5.2975
    9.060    5.6556
    9.195    5.0869
    9.330    4.9816
    9.465    5.2133
    9.600    5.3502
    9.735    4.8025
    9.870    5.0342
   10.005    5.1395
   10.140    5.0869
   10.275    4.9078
   10.410    4.9394
   10.545    5.0132
   10.680    5.4028
   10.815    4.8868
   10.950    5.0658
   11.085    4.6761
   11.220    4.8025
   11.355    4.8236
   11.490    4.6656
   11.625    4.7604
   11.760    4.8341
   11.895    4.3075
   12.030    4.6130
   12.165    4.7499
   12.300    4.5498
   12.435    4.8025
   12.570    4.7288
   12.705    4.6551
   12.840    4.7920
   12.975    4.6867
   13.110    4.5392
   13.245    4.7077
   13.380    4.4550
   13.515    4.4339
   13.650    4.4444
   13.785    4.3918
   13.920    4.4655
   14.055    4.3286
   14.190    4.8236
   14.325    4.6235
   14.460    4.3602
   14.595    4.6445
   14.730    4.4866
   14.865    4.8236
   15.000    5.0553
   15.135    4.2127
   15.270    4.5708
   15.405    4.6130
   15.540    4.4971
   15.675    4.6340
   15.810    4.7183
   15.945    4.7499
   16.080    4.7709
   16.215    4.7183
   16.350    4.6130
   16.485    4.6130
   16.620    4.4866
   16.755    4.5603
   16.890    4.4234
   17.025    4.5708
   17.160    4.6340
   17.295    4.4655
   17.430    4.8341
   17.565    4.5076
   17.700    4.5814
   17.835    4.4550
   17.970    4.7499
   18.105    4.9289
   18.240    4.5708
   18.375    4.4444
   18.510    4.7077
   18.645    4.3286
   18.780    4.8341
   18.915    4.9394
   19.050    5.3607
   19.185    4.5392
   19.320    5.0026
   19.455    4.6972
   19.590    4.8657
   19.725    4.7393
   19.860    4.8447
   19.995    4.7920
   20.130    4.4550
   20.265    4.9921
   20.400    4.7077
   20.535    4.6551
   20.670    4.6551
   20.805    4.8552
   20.940    5.0658
   21.075    4.9394
   21.210    4.7604
   21.345    4.6130
   21.480    4.8131
   21.615    4.9921
   21.750    4.7920
   21.885    4.7920
   22.020    4.7183
   22.155    5.0658
   22.290    5.0764
   22.425    4.8341
   22.560    5.3291
   22.695    4.5603
   22.830    4.8657
   22.965    5.3397
   23.100    5.0869
   23.235    4.8131
   23.370    4.7183
   23.505    4.7920
   23.640    5.0658
   23.775    4.9710
   23.910    4.8447
   24.045    4.7077
   24.180    4.8236
   24.315    4.5287
   24.450    4.6445
   24.585    4.9710
   24.720    4.6867
   24.855    4.5603
   24.990    4.7604
   25.125    4.8025
   25.260    4.7920
   25.395    4.6761
   25.530    4.9816
   25.665    4.6445
   25.800    4.4760
   25.935    4.6867
   26.070    4.8447
   26.205    4.4760
   26.340    4.4866
   26.475    4.6551
   26.610    4.2127
   26.745    4.6445
   26.880    4.5708
   27.015    4.4760
   27.150    4.0653
   27.285    4.1601
   27.420    4.2443
   27.555    3.8968
   27.690    4.3497
   27.825    4.2338
   27.960    5.2659
   28.095    4.6656
   28.230    4.3918
   28.365    4.2233
   28.500    4.3602
   28.635    4.2443
   28.770    4.2127
   28.905    4.8447
   29.040    4.5182
   29.175    4.3391
   29.310    4.0442
   29.445    3.9494
   29.580    4.1180
   29.715    3.9705
   29.850    4.1706
   29.985    4.2443
   30.120    4.3181
   30.255    4.1074
   30.390    4.0758
   30.525    3.9073
   30.660    3.7599
   30.795    4.1601
   30.930    4.0758
   31.065    3.6651
   31.200    4.0864
   31.335    4.1390
   31.470    3.6862
   31.605    3.8968
   31.740    4.4971
   31.875    4.0864
   32.010    5.0974
   32.145    5.8031
   32.280    4.3286
   32.415    4.0232
   32.550    3.6651
   32.685    4.1180
   32.820    3.4755
   32.955    3.7915
   33.090    3.6335
   33.225    3.5914
   33.360    3.2333
   33.495    3.5808
   33.630    3.5808
   33.765    4.2549
   33.900    4.1601
   34.035    3.6967
   34.170    3.6019
   34.305    3.4544
   34.440    3.3807
   34.575    3.6756
   34.710    3.5071
   34.845    3.6546
   34.980    3.5808
   35.115    3.5176
   35.250    3.6124
   35.385    3.4544
   35.520    3.3807
   35.655    3.5492
   35.790    3.1174
   35.925    3.3807
   36.060    3.4123
   36.195    3.2543
   36.330    3.2438
   36.465    3.1385
   36.600    3.2649
   36.735    2.9595
   36.870    3.0964
   37.005    3.4650
   37.140    3.2227
   37.275    3.2543
   37.410    3.0648
   37.545    3.3913
   37.680    3.1596
   37.815    2.9910
   37.950    3.1385
   38.085    3.3807
   38.220    3.0437
   38.355    3.4334
   38.490    3.2859
   38.625    3.6019
   38.760    3.2859
   38.895    3.1385
   39.030    3.2438
   39.165    3.2122
   39.300    3.0858
   39.435    3.3281
   39.570    3.0964
   39.705    3.2333
   39.840    3.3070
   39.975    3.0437
   39.990    2.8541