File: data/PXRD/PXRD_KE-199_Cu-Ka1_capillary-1mm_5s-deg.xyd
    1.500   19.2522
    1.635   16.8826
    1.770   15.4186
    1.905   13.7335
    2.040   12.6277
    2.175   11.4060
    2.310   11.2691
    2.445   10.8794
    2.580   10.7530
    2.715   11.5113
    2.850   14.2601
    2.985   17.9463
    3.120   26.0032
    3.255   42.6646
    3.390   82.1590
    3.525   54.8921
    3.660   39.3892
    3.795   69.3523
    3.930   43.0964
    4.065   37.2407
    4.200   26.6456
    4.335   14.3971
    4.470    9.0785
    4.605    6.9826
    4.740    5.8873
    4.875    5.7293
    5.010    5.7609
    5.145    5.6029
    5.280    6.7299
    5.415   10.6898
    5.550    6.5719
    5.685    4.9605
    5.820    4.7815
    5.955    3.9705
    6.090    4.6024
    6.225    4.2759
    6.360    4.2127
    6.495    4.5498
    6.630    5.7399
    6.765    7.1406
    6.900   10.9637
    7.035    7.9094
    7.170    5.1711
    7.305    4.5708
    7.440    4.8763
    7.575    4.9710
    7.710    6.3928
    7.845    6.1085
    7.980    5.6661
    8.115    6.4034
    8.250    6.3507
    8.385    5.9294
    8.520    5.5503
    8.655    5.2870
    8.790    4.5287
    8.925    4.5076
    9.060    3.9600
    9.195    4.2549
    9.330    4.5392
    9.465    6.2454
    9.600    5.6345
    9.735    4.0021
    9.870    4.0021
   10.005    3.9600
   10.140    4.2549
   10.275    5.6240
   10.410    4.5287
   10.545    4.2127
   10.680    4.3075
   10.815    3.8863
   10.950    4.6867
   11.085    4.5076
   11.220    4.1390
   11.355    3.9705
   11.490    3.9389
   11.625    4.7077
   11.760    4.5182
   11.895    3.7704
   12.030    4.1601
   12.165    4.2865
   12.300    4.4128
   12.435    4.1601
   12.570    4.4339
   12.705    4.0758
   12.840    4.3181
   12.975    5.1711
   13.110    3.9810
   13.245    3.8336
   13.380    4.0021
   13.515    4.9605
   13.650    3.7915
   13.785    4.0864
   13.920    3.8125
   14.055    4.6024
   14.190    3.9705
   14.325    4.1706
   14.460    3.9916
   14.595    3.8125
   14.730    3.8336
   14.865    3.5598
   15.000    3.8757
   15.135    3.8547
   15.270    3.8125
   15.405    3.5808
   15.540    4.3075
   15.675    3.7915
   15.810    3.9284
   15.945    4.0126
   16.080    4.3707
   16.215    4.0126
   16.350    4.1285
   16.485    3.7809
   16.620    4.0232
   16.755    3.6651
   16.890    4.0758
   17.025    4.6761
   17.160    4.0864
   17.295    3.5703
   17.430    3.7177
   17.565    3.8968
   17.700    3.5598
   17.835    3.8336
   17.970    3.9705
   18.105    3.7388
   18.240    4.0548
   18.375    4.0758
   18.510    3.7493
   18.645    3.8231
   18.780    3.8441
   18.915    3.9389
   19.050    3.5914
   19.185    3.9073
   19.320    4.0337
   19.455    4.0232
   19.590    4.2759
   19.725    3.9600
   19.860    4.0442
   19.995    4.5287
   20.130    4.2338
   20.265    4.3391
   20.400    4.8552
   20.535    4.3181
   20.670    4.2127
   20.805    4.3181
   20.940    3.8757
   21.075    4.2233
   21.210    4.2338
   21.345    4.4550
   21.480    4.2970
   21.615    4.2443
   21.750    4.5287
   21.885    4.2654
   22.020    4.1706
   22.155    4.1390
   22.290    4.3391
   22.425    4.2127
   22.560    4.7920
   22.695    4.2970
   22.830    4.5708
   22.965    4.5919
   23.100    4.3181
   23.235    4.3181
   23.370    4.0442
   23.505    3.9494
   23.640    4.3075
   23.775    4.1811
   23.910    4.2233
   24.045    3.9916
   24.180    3.8125
   24.315    3.8441
   24.450    4.0232
   24.585    4.1074
   24.720    4.1496
   24.855    3.8968
   24.990    4.1390
   25.125    3.8652
   25.260    3.9705
   25.395    4.2022
   25.530    3.9494
   25.665    3.8547
   25.800    4.5814
   25.935    3.8652
   26.070    3.8020
   26.205    3.8336
   26.340    3.7915
   26.475    3.8231
   26.610    3.8547
   26.745    3.3807
   26.880    3.8547
   27.015    3.4966
   27.150    3.7388
   27.285    3.4755
   27.420    3.6124
   27.555    3.6440
   27.690    3.4018
   27.825    3.6651
   27.960    3.7493
   28.095    3.6651
   28.230    3.5176
   28.365    3.7177
   28.500    3.8336
   28.635    3.6756
   28.770    3.5914
   28.905    3.2754
   29.040    3.9179
   29.175    3.4439
   29.310    3.5598
   29.445    3.6124
   29.580    3.1806
   29.715    3.4860
   29.850    3.1806
   29.985    3.4334
   30.120    3.6862
   30.255    3.5914
   30.390    3.3491
   30.525    3.4544
   30.660    3.4018
   30.795    2.9700
   30.930    3.4650
   31.065    2.9805
   31.200    3.3597
   31.335    3.2859
   31.470    3.3597
   31.605    3.4650
   31.740    3.5703
   31.875    3.3175
   32.010    3.3702
   32.145    3.0542
   32.280    3.2754
   32.415    3.1069
   32.550    3.2859
   32.685    3.0858
   32.820    3.3491
   32.955    3.3491
   33.090    2.9910
   33.225    3.1385
   33.360    3.1806
   33.495    3.3175
   33.630    3.0226
   33.765    3.0964
   33.900    2.9700
   34.035    2.8120
   34.170    2.9279
   34.305    3.1069
   34.440    2.9384
   34.575    2.9700
   34.710    2.9595
   34.845    3.3807
   34.980    3.1806
   35.115    3.1701
   35.250    3.2122
   35.385    3.0437
   35.520    2.8963
   35.655    2.9068
   35.790    2.9595
   35.925    3.4229
   36.060    2.9910
   36.195    2.9173
   36.330    2.7699
   36.465    3.0016
   36.600    3.1069
   36.735    2.8857
   36.870    2.9068
   37.005    2.8752
   37.140    3.1069
   37.275    2.8647
   37.410    3.0964
   37.545    2.9489
   37.680    2.9068
   37.815    2.8752
   37.950    3.0753
   38.085    2.8752
   38.220    2.8857
   38.355    2.9805
   38.490    2.8963
   38.625    2.8015
   38.760    2.9489
   38.895    2.9805
   39.030    2.9384
   39.165    2.8541
   39.300    2.8436
   39.435    2.8225
   39.570    2.8015
   39.705    2.5803
   39.840    2.7278
   39.975    2.6119
   39.990    2.6856