File: data/PXRD/PXRD_KE-312_Cu-Ka1_capillary-1mm_3s-deg.xyd
    1.500   13.4632
    1.635   11.2340
    1.770    9.9702
    1.905    9.3558
    2.040    8.7239
    2.175    7.3021
    2.310    7.1441
    2.445    6.6175
    2.580    6.7228
    2.715    6.3718
    2.850    6.5122
    2.985    7.2670
    3.120    9.4085
    3.255   13.6212
    3.390   21.8009
    3.525   37.1775
    3.660   70.8092
    3.795  192.3293
    3.930   35.7557
    4.065    6.6000
    4.200    5.5994
    4.335    5.0728
    4.470    5.0904
    4.605    5.3888
    4.740    6.3718
    4.875    4.4936
    5.010    4.8271
    5.145    6.6175
    5.280   11.4622
    5.415   29.8578
    5.550    9.8297
    5.685    4.2654
    5.820    4.5287
    5.955    4.0021
    6.090    3.9670
    6.225    4.1074
    6.360    4.0372
    6.495    4.5638
    6.630    5.9505
    6.765    6.8633
    6.900    4.2654
    7.035    4.1425
    7.170    3.6510
    7.305    3.7739
    7.440    4.1776
    7.575    5.5643
    7.710   10.7952
    7.845    6.2840
    7.980    3.6335
    8.115    3.7037
    8.250    4.8271
    8.385    3.7213
    8.520    4.0372
    8.655    5.0553
    8.790    3.6159
    8.925    3.7739
    9.060    3.9494
    9.195    3.6862
    9.330    5.0728
    9.465   11.3569
    9.600    9.8122
    9.735    3.8441
    9.870    3.5808
   10.005    3.4229
   10.140    4.7393
   10.275    8.9872
   10.410    4.0372
   10.545    3.6686
   10.680    3.5633
   10.815    4.1074
   10.950    6.3542
   11.085    6.5298
   11.220    3.3702
   11.355    3.9143
   11.490    4.0197
   11.625    6.2489
   11.760    7.0915
   11.895    3.2649
   12.030    3.4755
   12.165    3.8441
   12.300    4.5638
   12.435    3.2122
   12.570    3.4580
   12.705    3.3702
   12.840    3.9846
   12.975    7.9340
   13.110    3.2824
   13.245    2.9665
   13.380    3.0718
   13.515    5.7048
   13.650    3.3526
   13.785    3.2649
   13.920    3.7213
   14.055    6.9335
   14.190    3.7213
   14.325    3.6510
   14.460    3.0191
   14.595    3.1420
   14.730    3.2122
   14.865    3.5457
   15.000    3.1245
   15.135    4.1425
   15.270    3.0893
   15.405    3.0016
   15.540    3.4580
   15.675    2.8963
   15.810    3.2473
   15.945    3.2473
   16.080    3.7915
   16.215    3.3526
   16.350    3.3877
   16.485    3.1245
   16.620    4.7218
   16.755    3.2298
   16.890    3.6159
   17.025    5.3888
   17.160    3.9494
   17.295    3.4053
   17.430    3.3877
   17.565    3.9143
   17.700    3.3000
   17.835    3.5633
   17.970    3.9494
   18.105    3.4580
   18.240    3.2473
   18.375    4.4058
   18.510    3.4053
   18.645    3.6335
   18.780    3.8090
   18.915    3.1947
   19.050    3.1596
   19.185    3.1947
   19.320    3.1947
   19.455    3.5457
   19.590    4.1425
   19.725    3.3526
   19.860    3.4755
   19.995    3.3175
   20.130    3.5282
   20.265    3.7213
   20.400    6.6175
   20.535    3.4580
   20.670    3.1069
   20.805    3.4229
   20.940    3.2824
   21.075    3.3702
   21.210    3.2473
   21.345    3.3702
   21.480    3.6510
   21.615    3.4404
   21.750    3.2649
   21.885    4.4585
   22.020    2.9489
   22.155    3.7213
   22.290    3.0718
   22.425    3.8792
   22.560    5.5819
   22.695    3.5633
   22.830    3.8441
   22.965    6.3542
   23.100    3.5282
   23.235    4.3883
   23.370    3.4931
   23.505    3.5106
   23.640    3.1947
   23.775    3.0718
   23.910    4.3181
   24.045    3.6510
   24.180    3.4229
   24.315    3.0367
   24.450    3.1771
   24.585    3.5984
   24.720    3.1420
   24.855    2.8787
   24.990    3.7388
   25.125    3.5808
   25.260    3.6159
   25.395    3.4755
   25.530    3.7564
   25.665    3.3000
   25.800    4.7569
   25.935    4.0899
   26.070    3.3000
   26.205    3.0718
   26.340    3.2473
   26.475    3.8617
   26.610    3.3877
   26.745    3.4404
   26.880    3.1420
   27.015    3.8792
   27.150    3.4755
   27.285    3.1596
   27.420    3.4755
   27.555    3.6335
   27.690    3.5457
   27.825    3.2649
   27.960    3.5457
   28.095    3.5106
   28.230    4.2478
   28.365    3.4580
   28.500    3.8090
   28.635    3.0367
   28.770    3.4404
   28.905    2.9840
   29.040    3.1947
   29.175    3.0893
   29.310    4.0372
   29.445    3.0718
   29.580    3.3351
   29.715    3.3000
   29.850    3.6159
   29.985    3.0191
   30.120    3.4053
   30.255    3.0016
   30.390    3.5808
   30.525    3.2649
   30.660    3.2298
   30.795    3.2649
   30.930    3.1420
   31.065    3.1069
   31.200    2.8260
   31.335    3.3000
   31.470    3.4229
   31.605    3.3526
   31.740    3.3000
   31.875    2.9665
   32.010    3.2298
   32.145    3.1245
   32.280    3.1069
   32.415    3.0016
   32.550    3.3000
   32.685    3.1069
   32.820    3.1420
   32.955    3.1069
   33.090    2.5979
   33.225    2.8260
   33.360    2.9489
   33.495    2.7383
   33.630    2.9840
   33.765    2.8260
   33.900    3.4580
   34.035    2.9314
   34.170    2.7734
   34.305    2.7383
   34.440    3.0893
   34.575    3.0542
   34.710    2.9314
   34.845    3.2298
   34.980    2.4399
   35.115    2.9840
   35.250    2.6856
   35.385    2.9665
   35.520    2.7909
   35.655    3.0191
   35.790    2.7909
   35.925    3.1596
   36.060    2.9138
   36.195    2.8085
   36.330    3.0016
   36.465    2.6681
   36.600    2.7032
   36.735    3.0893
   36.870    2.5979
   37.005    3.0367
   37.140    2.9489
   37.275    2.6505
   37.410    2.5803
   37.545    2.6856
   37.680    2.9489
   37.815    2.8612
   37.950    3.0367
   38.085    2.6154
   38.220    2.6856
   38.355    2.8787
   38.490    2.9138
   38.625    2.5979
   38.760    2.6330
   38.895    2.6505
   39.030    2.9665
   39.165    2.3521
   39.300    2.8787
   39.435    2.8963
   39.570    2.2819
   39.705    2.7383
   39.840    2.6330
   39.975    2.6681
   39.990    2.2819