File: data/PXRD/PXRD_KE-068_Cu-Ka1_capillary-1mm_5s-deg.xyd
    1.500   12.3223
    1.635   11.8273
    1.770   11.7957
    1.905   11.7641
    2.040   11.5956
    2.175   12.0800
    2.310   12.9015
    2.445   13.8599
    2.580   16.3244
    2.715   17.5145
    2.850   21.5587
    2.985   27.5513
    3.120   34.2707
    3.255   47.8673
    3.390   75.5556
    3.525   91.9958
    3.660   39.2312
    3.795   42.9700
    3.930   59.5471
    4.065   40.2633
    4.200   26.1822
    4.335   15.1553
    4.470    9.9210
    4.605    7.9094
    4.740    6.9616
    4.875    6.3823
    5.010    6.2981
    5.145    6.6667
    5.280    6.7930
    5.415    7.7725
    5.550   10.0579
    5.685    4.9605
    5.820    4.8868
    5.955    4.9500
    6.090    5.1922
    6.225    5.3607
    6.360    5.4028
    6.495    5.8241
    6.630    6.4771
    6.765    9.2259
    6.900   10.7004
    7.035   11.8589
    7.170    6.3191
    7.305    5.6240
    7.440    5.6345
    7.575    5.9400
    7.710    6.4771
    7.845    7.7093
    7.980    6.7404
    8.115    7.8252
    8.250    7.0142
    8.385    7.0037
    8.520    6.2875
    8.655    5.7609
    8.790    5.3712
    8.925    4.9500
    9.060    4.8552
    9.195    4.3181
    9.330    4.8447
    9.465    5.5292
    9.600    7.1090
    9.735    4.4866
    9.870    4.3602
   10.005    4.7499
   10.140    4.4339
   10.275    4.6656
   10.410    5.0342
   10.545    5.0869
   10.680    4.6761
   10.815    4.6867
   10.950    4.6656
   11.085    5.1395
   11.220    4.7077
   11.355    4.3707
   11.490    4.3286
   11.625    4.6445
   11.760    5.1817
   11.895    4.9921
   12.030    5.1080
   12.165    4.8447
   12.300    4.6972
   12.435    5.1185
   12.570    4.5076
   12.705    4.6551
   12.840    4.7393
   12.975    5.1501
   13.110    4.5498
   13.245    4.3497
   13.380    4.6340
   13.515    4.6551
   13.650    4.6235
   13.785    4.5076
   13.920    4.6867
   14.055    4.4971
   14.190    4.7077
   14.325    4.4655
   14.460    4.1811
   14.595    4.1917
   14.730    4.2654
   14.865    4.2759
   15.000    4.2654
   15.135    4.1496
   15.270    4.1496
   15.405    4.3602
   15.540    4.3391
   15.675    4.3602
   15.810    4.0864
   15.945    4.3497
   16.080    4.1706
   16.215    4.6024
   16.350    4.2654
   16.485    4.6445
   16.620    4.3813
   16.755    4.3075
   16.890    4.0969
   17.025    4.2654
   17.160    4.4971
   17.295    4.1496
   17.430    4.6551
   17.565    4.4128
   17.700    4.4339
   17.835    4.5076
   17.970    4.5498
   18.105    4.2549
   18.240    4.3497
   18.375    4.4023
   18.510    4.4444
   18.645    4.5919
   18.780    4.3075
   18.915    4.1180
   19.050    4.6867
   19.185    4.5919
   19.320    4.4550
   19.455    4.7815
   19.590    4.6551
   19.725    4.6130
   19.860    4.5814
   19.995    4.6551
   20.130    5.1290
   20.265    4.6551
   20.400    4.9184
   20.535    4.5603
   20.670    4.6235
   20.805    4.6551
   20.940    4.5919
   21.075    4.7709
   21.210    4.7183
   21.345    4.8236
   21.480    4.6867
   21.615    4.9184
   21.750    4.6340
   21.885    4.9605
   22.020    4.9394
   22.155    4.7288
   22.290    4.7077
   22.425    4.7499
   22.560    4.6867
   22.695    4.9394
   22.830    4.7709
   22.965    5.1817
   23.100    4.4866
   23.235    4.9500
   23.370    4.4444
   23.505    4.6867
   23.640    4.5076
   23.775    4.6551
   23.910    4.4444
   24.045    4.6130
   24.180    4.5076
   24.315    4.3286
   24.450    4.4655
   24.585    4.1811
   24.720    4.9184
   24.855    4.1811
   24.990    4.3075
   25.125    4.2549
   25.260    4.4339
   25.395    4.2970
   25.530    4.2654
   25.665    4.2865
   25.800    4.1496
   25.935    4.2443
   26.070    4.3075
   26.205    4.0126
   26.340    4.2654
   26.475    4.1601
   26.610    4.0758
   26.745    3.7704
   26.880    4.1180
   27.015    4.2233
   27.150    4.0864
   27.285    3.8441
   27.420    4.2233
   27.555    3.8863
   27.690    4.2338
   27.825    3.7599
   27.960    4.2443
   28.095    4.2970
   28.230    4.1496
   28.365    4.0442
   28.500    4.0232
   28.635    3.7704
   28.770    4.0021
   28.905    3.8863
   29.040    3.9600
   29.175    3.7704
   29.310    3.9705
   29.445    3.9705
   29.580    3.6124
   29.715    3.8125
   29.850    3.7809
   29.985    3.6967
   30.120    3.9705
   30.255    3.6967
   30.390    3.8020
   30.525    3.8863
   30.660    3.6862
   30.795    3.5071
   30.930    3.4650
   31.065    3.5387
   31.200    3.6440
   31.335    3.3807
   31.470    3.6019
   31.605    3.4650
   31.740    3.6862
   31.875    3.7915
   32.010    3.9179
   32.145    3.9284
   32.280    3.5703
   32.415    3.3913
   32.550    3.6651
   32.685    3.4755
   32.820    3.2754
   32.955    3.2438
   33.090    3.3281
   33.225    3.2122
   33.360    3.2965
   33.495    3.1701
   33.630    3.4755
   33.765    3.1701
   33.900    3.3491
   34.035    3.4123
   34.170    3.2122
   34.305    3.2333
   34.440    3.0016
   34.575    2.8436
   34.710    2.8857
   34.845    3.0753
   34.980    2.9173
   35.115    3.0964
   35.250    3.0964
   35.385    3.1596
   35.520    3.0226
   35.655    3.0542
   35.790    3.0016
   35.925    2.7278
   36.060    2.8963
   36.195    2.8436
   36.330    2.7383
   36.465    2.5908
   36.600    2.8120
   36.735    2.9910
   36.870    2.9805
   37.005    2.6540
   37.140    2.8436
   37.275    2.5592
   37.410    3.1280
   37.545    2.8752
   37.680    3.0437
   37.815    2.7067
   37.950    2.6856
   38.085    2.9700
   38.220    2.7488
   38.355    2.7172
   38.490    2.8647
   38.625    2.8752
   38.760    2.6119
   38.895    2.5803
   39.030    2.7172
   39.165    2.6856
   39.300    2.7909
   39.435    2.8541
   39.570    2.7383
   39.705    2.4855
   39.840    2.5382
   39.975    2.5487
   39.990    2.7804