File: data/PXRD/PXRD_KE-049-1-2_Cu-Ka1_capillary-1mm_5s-deg.xyd
    1.500   29.2575
    1.590   29.0679
    1.680   26.4139
    1.770   25.0553
    1.860   24.5182
    1.950   23.2859
    2.040   23.2438
    2.130   21.9379
    2.220   23.0121
    2.310   23.8231
    2.400   25.1290
    2.490   26.4244
    2.580   28.7520
    2.670   29.9842
    2.760   33.7651
    2.850   38.0200
    2.940   44.2759
    3.030   51.2270
    3.120   63.6756
    3.210   78.5887
    3.300  105.1290
    3.390  157.1880
    3.480  165.4239
    3.570   57.7988
    3.660   45.7504
    3.750   49.6577
    3.840   62.2538
    3.930   76.5771
    4.020   85.2343
    4.110   81.2638
    4.200   56.4824
    4.290   35.3765
    4.380   20.4213
    4.470   14.6498
    4.560   11.4060
    4.650    9.8999
    4.740    9.1311
    4.830    8.6993
    4.920    8.8257
    5.010    8.5097
    5.100    8.3518
    5.190    8.4887
    5.280    8.6993
    5.370    8.5203
    5.460    8.6783
    5.550    8.7730
    5.640    7.3407
    5.730    7.2565
    5.820    7.6040
    5.910    7.7830
    6.000    7.6672
    6.090    7.8989
    6.180    7.8568
    6.270    7.9726
    6.360    8.2991
    6.450    8.7098
    6.540    9.9105
    6.630   10.8268
    6.720   12.7962
    6.810   16.3033
    6.900   24.1074
    6.990   22.0958
    7.080   10.4371
    7.170    8.4676
    7.260    8.1622
    7.350    8.0779
    7.440    8.1833
    7.530    8.6783
    7.620    8.4992
    7.710    9.2364
    7.800    9.6788
    7.890   11.2059
    7.980   11.8273
    8.070   13.6282
    8.160   14.1654
    8.250   15.0711
    8.340   13.7441
    8.430   12.5118
    8.520   11.9431
    8.610   10.3739
    8.700    9.2259
    8.790    8.7520
    8.880    8.2780
    8.970    8.2254
    9.060    8.4255
    9.150    9.2259
    9.240    9.9526
    9.330    9.2680
    9.420    8.3728
    9.510    7.8884
    9.600    8.4676
    9.690    7.4776
    9.780    7.2986
    9.870    7.4776
    9.960    7.9726
   10.050    7.6883
   10.140    7.9305
   10.230    8.1833
   10.320    8.0779
   10.410    9.4576
   10.500    9.1943
   10.590    7.6567
   10.680    7.8462
   10.770    7.2249
   10.860    7.2249
   10.950    7.1511
   11.040    7.0879
   11.130    7.2670
   11.220    7.3512
   11.310    7.1195
   11.400    7.4144
   11.490    6.9510
   11.580    7.3196
   11.670    7.8146
   11.760    7.8778
   11.850    7.6145
   11.940    7.9516
   12.030    8.0779
   12.120    8.6572
   12.210    8.9731
   12.300    8.4571
   12.390    8.5097
   12.480    8.2254
   12.570    8.1938
   12.660    8.3939
   12.750    8.4360
   12.840    8.0358
   12.930    8.0885
   13.020    8.0990
   13.110    7.6356
   13.200    7.8568
   13.290    8.0253
   13.380    7.9621
   13.470    7.7514
   13.560    8.0253
   13.650    7.9305
   13.740    7.2565
   13.830    7.7830
   13.920    7.2565
   14.010    7.5197
   14.100    7.1827
   14.190    7.2038
   14.280    6.9405
   14.370    7.1933
   14.460    6.8668
   14.550    6.7193
   14.640    6.7509
   14.730    7.0353
   14.820    6.9826
   14.910    6.9405
   15.000    7.0248
   15.090    7.3196
   15.180    7.2143
   15.270    7.3407
   15.360    6.8352
   15.450    7.0669
   15.540    7.2459
   15.630    7.5408
   15.720    7.4460
   15.810    6.9194
   15.900    7.0879
   15.990    7.2354
   16.080    6.9721
   16.170    7.3302
   16.260    7.5197
   16.350    7.0458
   16.440    6.8352
   16.530    6.6667
   16.620    7.0458
   16.710    6.9616
   16.800    7.0458
   16.890    6.5613
   16.980    7.4987
   17.070    6.9932
   17.160    7.1195
   17.250    7.0669
   17.340    7.1722
   17.430    7.3407
   17.520    7.3723
   17.610    7.3302
   17.700    7.0669
   17.790    7.3091
   17.880    7.4882
   17.970    7.4355
   18.060    7.7830
   18.150    7.4566
   18.240    7.1195
   18.330    6.8562
   18.420    7.1406
   18.510    7.1406
   18.600    7.2038
   18.690    7.4039
   18.780    7.1511
   18.870    7.1195
   18.960    7.1511
   19.050    7.2565
   19.140    7.4355
   19.230    7.3723
   19.320    7.4987
   19.410    7.4250
   19.500    7.8462
   19.590    8.1938
   19.680    8.6993
   19.770    7.9410
   19.860    8.5413
   19.950    8.6677
   20.040    8.5308
   20.130    8.3623
   20.220    8.3728
   20.310    7.8778
   20.400    7.8568
   20.490    7.9831
   20.580    7.3618
   20.670    7.5829
   20.760    7.8252
   20.850    8.0674
   20.940    8.2464
   21.030    8.5940
   21.120    8.1833
   21.210    8.3728
   21.300    8.2675
   21.390    8.2359
   21.480    7.9200
   21.570    8.4992
   21.660    8.2043
   21.750    7.9305
   21.840    7.5619
   21.930    8.0358
   22.020    7.5619
   22.110    7.7725
   22.200    7.7830
   22.290    7.8146
   22.380    7.7409
   22.470    7.5619
   22.560    8.0253
   22.650    7.9410
   22.740    7.8041
   22.830    8.1306
   22.920    7.7409
   23.010    8.0253
   23.100    7.5935
   23.190    7.8884
   23.280    7.0458
   23.370    7.8462
   23.460    7.7830
   23.550    7.6145
   23.640    7.4987
   23.730    7.5303
   23.820    7.5935
   23.910    7.1827
   24.000    7.5513
   24.090    7.6356
   24.180    7.3934
   24.270    7.8462
   24.360    7.3091
   24.450    7.7199
   24.540    8.0253
   24.630    7.3512
   24.720    7.6883
   24.810    7.2880
   24.900    7.7199
   24.990    7.1933
   25.080    7.4566
   25.170    7.3723
   25.260    7.1827
   25.350    7.2354
   25.440    7.1511
   25.530    7.0985
   25.620    7.0985
   25.710    7.1722
   25.800    7.1933
   25.890    7.5829
   25.980    7.0669
   26.070    6.9405
   26.160    7.0142
   26.250    6.7615
   26.340    6.9932
   26.430    6.9300
   26.520    7.1617
   26.610    7.0037
   26.700    7.0142
   26.790    7.0879
   26.880    7.0353
   26.970    6.8246
   27.060    6.4876
   27.150    7.1195
   27.165    7.0563