File: data/PXRD/PXRD_KE-083_Cu-Ka1_capillary-1mm_5s-deg.xyd
    1.500   12.2696
    1.635   12.5750
    1.770   11.5640
    1.905   12.3749
    2.040   12.4381
    2.175   13.4071
    2.310   14.6603
    2.445   16.1875
    2.580   17.3670
    2.715   21.8641
    2.850   25.9505
    2.985   32.4803
    3.120   43.8547
    3.255   64.6656
    3.390  108.4781
    3.525   73.5334
    3.660   32.5329
    3.795   35.0395
    3.930   45.9610
    4.065   54.2601
    4.200   42.8752
    4.335   20.5161
    4.470   10.7320
    4.605    7.3828
    4.740    6.4771
    4.875    5.6661
    5.010    5.5714
    5.145    5.4239
    5.280    5.1395
    5.415    5.1080
    5.550    4.7604
    5.685    4.9289
    5.820    5.0026
    5.955    4.9184
    6.090    4.9816
    6.225    4.9710
    6.360    5.4766
    6.495    5.8031
    6.630    6.8457
    6.765    9.1522
    6.900   15.6609
    7.035    9.9631
    7.170    5.7504
    7.305    5.1395
    7.440    5.1711
    7.575    5.7609
    7.710    5.8768
    7.845    6.1822
    7.980    7.2775
    8.115    8.7204
    8.250    8.8994
    8.385    8.7941
    8.520    7.7936
    8.655    6.0348
    8.790    5.6029
    8.925    5.3712
    9.060    4.7288
    9.195    4.4444
    9.330    4.5182
    9.465    4.6656
    9.600    4.5814
    9.735    4.1285
    9.870    4.5919
   10.005    4.5603
   10.140    4.3602
   10.275    4.7183
   10.410    5.1185
   10.545    4.9605
   10.680    4.6445
   10.815    4.4760
   10.950    4.8552
   11.085    4.2759
   11.220    4.7077
   11.355    4.2022
   11.490    4.5814
   11.625    4.0442
   11.760    4.7604
   11.895    4.9500
   12.030    4.8025
   12.165    4.8025
   12.300    5.1817
   12.435    5.0553
   12.570    5.0026
   12.705    5.1606
   12.840    4.8763
   12.975    4.8236
   13.110    5.0553
   13.245    4.9500
   13.380    4.6867
   13.515    4.8341
   13.650    4.8341
   13.785    5.1817
   13.920    4.7499
   14.055    4.5287
   14.190    4.3918
   14.325    4.6024
   14.460    4.5182
   14.595    4.3918
   14.730    4.5603
   14.865    4.2233
   15.000    4.4655
   15.135    4.5392
   15.270    4.2970
   15.405    4.4128
   15.540    4.6761
   15.675    4.3918
   15.810    4.4444
   15.945    4.9394
   16.080    4.5498
   16.215    4.5392
   16.350    4.1390
   16.485    4.3813
   16.620    4.1390
   16.755    4.6761
   16.890    4.8763
   17.025    4.2549
   17.160    4.2654
   17.295    4.4444
   17.430    4.2970
   17.565    4.5708
   17.700    4.4971
   17.835    4.1180
   17.970    4.4023
   18.105    4.4339
   18.240    4.4655
   18.375    4.5287
   18.510    4.7499
   18.645    4.2970
   18.780    4.3075
   18.915    4.3497
   19.050    4.2338
   19.185    4.3602
   19.320    4.6024
   19.455    5.1395
   19.590    5.0132
   19.725    4.9710
   19.860    5.3923
   19.995    5.2343
   20.130    5.2554
   20.265    5.2133
   20.400    5.0342
   20.535    5.1711
   20.670    5.1817
   20.805    5.0869
   20.940    4.8236
   21.075    4.8763
   21.210    4.7709
   21.345    4.8657
   21.480    4.9078
   21.615    4.9816
   21.750    5.1290
   21.885    5.0869
   22.020    5.0974
   22.155    5.0553
   22.290    5.0342
   22.425    4.8657
   22.560    5.1185
   22.695    5.0132
   22.830    4.8763
   22.965    4.7393
   23.100    4.7709
   23.235    4.7709
   23.370    4.8447
   23.505    4.9394
   23.640    4.4339
   23.775    4.4339
   23.910    4.3602
   24.045    4.8025
   24.180    4.7815
   24.315    5.0026
   24.450    4.4655
   24.585    4.8341
   24.720    4.2338
   24.855    4.5287
   24.990    4.2443
   25.125    4.4550
   25.260    4.7183
   25.395    4.1390
   25.530    4.4550
   25.665    4.2549
   25.800    4.2970
   25.935    4.2865
   26.070    4.0758
   26.205    4.4023
   26.340    3.8441
   26.475    4.1390
   26.610    4.2022
   26.745    4.1601
   26.880    4.3497
   27.015    3.9179
   27.150    4.0442
   27.285    4.0758
   27.420    4.1601
   27.555    4.1285
   27.690    3.9600
   27.825    4.2233
   27.960    4.0653
   28.095    4.3391
   28.230    4.2127
   28.365    4.5182
   28.500    4.1706
   28.635    3.8336
   28.770    4.0969
   28.905    3.9179
   29.040    4.0969
   29.175    4.0232
   29.310    3.8441
   29.445    3.8863
   29.580    3.9705
   29.715    3.8757
   29.850    3.8547
   29.985    3.8020
   30.120    3.8547
   30.255    3.6440
   30.390    3.8863
   30.525    3.8441
   30.660    4.0758
   30.795    3.9179
   30.930    3.6862
   31.065    3.7283
   31.200    3.7493
   31.335    3.7177
   31.470    3.5282
   31.605    3.6230
   31.740    3.7915
   31.875    3.5387
   32.010    3.7283
   32.145    3.7493
   32.280    3.7388
   32.415    3.5492
   32.550    3.7388
   32.685    3.5914
   32.820    3.3597
   32.955    3.5071
   33.090    3.2122
   33.225    3.1280
   33.360    3.6756
   33.495    3.4229
   33.630    3.2122
   33.765    3.4229
   33.900    3.1701
   34.035    3.2754
   34.170    3.1912
   34.305    3.0648
   34.440    3.3807
   34.575    3.0964
   34.710    3.0858
   34.845    3.1596
   34.980    2.9805
   35.115    2.8541
   35.250    3.3386
   35.385    3.1069
   35.520    3.0542
   35.655    3.2017
   35.790    3.0753
   35.925    3.2227
   36.060    2.8857
   36.195    3.0648
   36.330    2.8963
   36.465    2.9489
   36.600    2.8647
   36.735    3.0226
   36.870    2.6224
   37.005    2.7383
   37.140    3.0121
   37.275    2.8752
   37.410    2.8015
   37.545    2.8857
   37.680    2.9805
   37.815    2.9173
   37.950    2.7383
   38.085    2.9700
   38.220    2.8331
   38.355    2.7909
   38.490    2.9700
   38.625    2.8120
   38.760    2.8752
   38.895    2.8436
   39.030    2.7593
   39.165    2.8225
   39.300    2.9805
   39.435    2.9384
   39.570    2.6856
   39.705    2.5698
   39.840    2.8015
   39.975    2.5066
   39.990    2.7383