File: data/PXRD/PXRD_KE-321B_Cu-Ka1_capillary-1mm_3s-deg.xyd
    1.500   40.8987
    1.665   32.0520
    1.830   24.5568
    1.995   20.2738
    2.160   15.9207
    2.325   14.0074
    2.490   11.7255
    2.655    9.6015
    2.820    8.6888
    2.985    8.0218
    3.150    7.6707
    3.315    7.5829
    3.480    7.1266
    3.645    6.8106
    3.810    7.4952
    3.975    6.3367
    4.140    5.9856
    4.305    6.4420
    4.470    6.0909
    4.635    5.6521
    4.800    5.7750
    4.965    5.0202
    5.130    5.2484
    5.295    5.1782
    5.460    5.3010
    5.625    4.6691
    5.790    5.2133
    5.955    4.9851
    6.120    5.1782
    6.285    5.3186
    6.450    5.1431
    6.615    4.7393
    6.780    4.8622
    6.945    4.7569
    7.110    4.8973
    7.275    4.7920
    7.440    5.1255
    7.605    4.9851
    7.770    5.0202
    7.935    5.5643
    8.100    5.3361
    8.265    5.1606
    8.430    5.1255
    8.595    5.1080
    8.760    5.1782
    8.925    5.4941
    9.090    5.5643
    9.255    5.5994
    9.420    5.3888
    9.585    5.0728
    9.750    5.5468
    9.915    5.5994
   10.080    5.3537
   10.245    5.3186
   10.410    5.1255
   10.575    5.2133
   10.740    5.0553
   10.905    5.1431
   11.070    4.9851
   11.235    5.4590
   11.400    4.8271
   11.565    5.0553
   11.730    4.8447
   11.895    5.0728
   12.060    4.8095
   12.225    5.0202
   12.390    4.6340
   12.555    4.8271
   12.720    4.4760
   12.885    4.4058
   13.050    4.7042
   13.215    4.1952
   13.380    4.5463
   13.545    4.2478
   13.710    4.2127
   13.875    4.9149
   14.040    4.8973
   14.205    4.3883
   14.370    4.6867
   14.535    4.7393
   14.700    4.6867
   14.865    4.8622
   15.030    4.5638
   15.195    4.6691
   15.360    4.3707
   15.525    4.6165
   15.690    4.3181
   15.855    4.4585
   16.020    4.6691
   16.185    4.5638
   16.350    4.5287
   16.515    4.3883
   16.680    4.7042
   16.845    4.4936
   17.010    4.4936
   17.175    4.6691
   17.340    4.3883
   17.505    4.5111
   17.670    4.2830
   17.835    5.1080
   18.000    4.5814
   18.165    4.8271
   18.330    4.6165
   18.495    4.5989
   18.660    4.7920
   18.825    4.8447
   18.990    4.7920
   19.155    4.6691
   19.320    4.7744
   19.485    4.8798
   19.650    4.4936
   19.815    4.2654
   19.980    4.5989
   20.145    4.3005
   20.310    4.5638
   20.475    4.5989
   20.640    4.7920
   20.805    4.6867
   20.970    4.6867
   21.135    4.9500
   21.300    4.3707
   21.465    4.8622
   21.630    5.1782
   21.795    4.5638
   21.960    4.9675
   22.125    4.5814
   22.290    4.8622
   22.455    5.1957
   22.620    4.5989
   22.785    4.1074
   22.950    5.0904
   23.115    4.5287
   23.280    4.7393
   23.445    4.7393
   23.610    4.6867
   23.775    4.8798
   23.940    4.3883
   24.105    4.5111
   24.270    4.8095
   24.435    4.8447
   24.600    4.4585
   24.765    4.4936
   24.930    4.7042
   25.095    4.1425
   25.260    4.8095
   25.425    4.7569
   25.590    4.7042
   25.755    4.3883
   25.920    4.3181
   26.085    4.7042
   26.250    4.4760
   26.415    4.4058
   26.580    4.3883
   26.745    4.1776
   26.910    4.4585
   27.075    4.4058
   27.240    4.0723
   27.405    4.2654
   27.570    4.4936
   27.735    4.1776
   27.900    4.6165
   28.065    4.2127
   28.230    4.5111
   28.395    4.3181
   28.560    4.4234
   28.725    4.0372
   28.890    4.2127
   29.055    4.3356
   29.220    4.2127
   29.385    3.6862
   29.550    4.1776
   29.715    4.1952
   29.880    4.1776
   30.045    4.4234
   30.210    3.8792
   30.375    3.8968
   30.540    4.2478
   30.705    4.2830
   30.870    4.1952
   31.035    4.2478
   31.200    3.6159
   31.365    3.6510
   31.530    4.2303
   31.695    3.6335
   31.860    3.8792
   32.025    3.6862
   32.190    3.8266
   32.355    3.8441
   32.520    3.6862
   32.685    3.5808
   32.850    3.8441
   33.015    4.1776
   33.180    3.6862
   33.345    3.5633
   33.510    3.5984
   33.675    3.4053
   33.840    3.2824
   34.005    3.8792
   34.170    3.3000
   34.335    3.6335
   34.500    3.4931
   34.665    3.5633
   34.830    3.7213
   34.995    3.4053
   35.160    3.6686
   35.325    3.3351
   35.490    3.3351
   35.655    3.4053
   35.820    3.1771
   35.985    3.0542
   36.150    3.3702
   36.315    3.6686
   36.480    3.4931
   36.645    3.5457
   36.810    3.5457
   36.975    3.1245
   37.140    3.2122
   37.305    3.2649
   37.470    3.3351
   37.635    3.3877
   37.800    3.2824
   37.965    3.1596
   38.130    3.6335
   38.295    3.4580
   38.460    3.3526
   38.625    3.2824
   38.790    3.3351
   38.955    3.3526
   39.120    3.2824
   39.285    3.2649
   39.450    3.4931
   39.615    3.1947
   39.780    3.0718
   39.945    3.3702
   40.110    3.1420
   40.275    2.9489
   40.440    3.3877
   40.605    3.2298
   40.770    3.3702
   40.935    2.9489
   41.100    3.3175
   41.265    2.9489
   41.430    3.3702
   41.595    3.1947
   41.760    3.0367
   41.925    3.6510
   42.090    3.1596
   42.255    3.3000
   42.420    3.2122
   42.585    3.3526
   42.750    3.2473
   42.915    3.4755
   43.080    3.1771
   43.245    3.1420
   43.410    3.1245
   43.575    2.7909
   43.740    3.3702
   43.905    3.5808
   44.070    3.5457
   44.235    3.3877
   44.400    3.3877
   44.565    2.9840
   44.730    3.4053
   44.895    3.2298
   45.060    3.1069
   45.225    2.9840
   45.390    2.9840
   45.555    3.5282
   45.720    3.1069
   45.885    3.0542
   46.050    3.2473
   46.215    2.9489
   46.380    3.3702
   46.545    2.8085
   46.710    2.9489
   46.875    3.1245
   47.040    2.9489
   47.205    3.3702
   47.370    3.1596
   47.535    3.1947
   47.700    3.1069
   47.865    2.9138
   48.030    3.2122
   48.195    3.1596
   48.360    2.9489
   48.525    3.1069
   48.690    2.8436
   48.855    2.7558
   49.020    2.7734
   49.185    3.0893
   49.350    2.8787
   49.515    2.9665
   49.680    2.8963
   49.845    3.1420
   49.980    3.0718