File: data/PXRD/PXRD_KE-115_Cu-Ka1_capillary-1mm_5s-deg.xyd
    1.500   20.7162
    1.635   19.3786
    1.770   18.5677
    1.905   18.3360
    2.040   18.0832
    2.175   19.1785
    2.310   19.8526
    2.445   22.0432
    2.580   25.1080
    2.715   29.5313
    2.850   35.5134
    2.985   44.6972
    3.120   59.1259
    3.255   84.3286
    3.390  141.4534
    3.525   97.0722
    3.660   40.8320
    3.795   43.6440
    3.930   55.3344
    4.065   70.4581
    4.200   63.2754
    4.335   34.3971
    4.470   15.7030
    4.605   10.2264
    4.740    8.4466
    4.875    7.4355
    5.010    7.0248
    5.145    6.8036
    5.280    6.6140
    5.415    6.4876
    5.550    6.5508
    5.685    5.7609
    5.820    5.5924
    5.955    5.8662
    6.090    5.9294
    6.225    6.0032
    6.360    6.4034
    6.495    7.0669
    6.630    8.6993
    6.765   12.2486
    6.900   19.5893
    7.035   12.8805
    7.170    6.9616
    7.305    6.3507
    7.440    6.4455
    7.575    6.3086
    7.710    6.7825
    7.845    7.6672
    7.980    8.5413
    8.115   10.2791
    8.250   11.1111
    8.385   11.4903
    8.520   10.8794
    8.655    8.9837
    8.790    7.2986
    8.925    6.3086
    9.060    5.8241
    9.195    5.7504
    9.330    4.6656
    9.465    5.2449
    9.600    5.4239
    9.735    5.3397
    9.870    5.2659
   10.005    5.0658
   10.140    5.5082
   10.275    5.7609
   10.410    6.4455
   10.545    5.5608
   10.680    5.1185
   10.815    5.5398
   10.950    5.8241
   11.085    5.1290
   11.220    5.1711
   11.355    5.0237
   11.490    5.1817
   11.625    5.3607
   11.760    5.3291
   11.895    5.5292
   12.030    6.0242
   12.165    5.8873
   12.300    6.2349
   12.435    6.3823
   12.570    6.4666
   12.705    6.3718
   12.840    6.2349
   12.975    6.1190
   13.110    6.1190
   13.245    5.9505
   13.380    5.9505
   13.515    5.5082
   13.650    5.5503
   13.785    5.8136
   13.920    6.0137
   14.055    5.4766
   14.190    5.7188
   14.325    5.2133
   14.460    5.2343
   14.595    5.2027
   14.730    5.2027
   14.865    4.8973
   15.000    5.6556
   15.135    5.1501
   15.270    5.1922
   15.405    5.3818
   15.540    5.4134
   15.675    5.8557
   15.810    5.7504
   15.945    5.3291
   16.080    5.5819
   16.215    5.4660
   16.350    5.4028
   16.485    5.2238
   16.620    5.1501
   16.755    5.0448
   16.890    5.2027
   17.025    5.0764
   17.160    5.3186
   17.295    5.5503
   17.430    5.3397
   17.565    5.1290
   17.700    5.3712
   17.835    5.4555
   17.970    5.6872
   18.105    5.4134
   18.240    5.0764
   18.375    5.3607
   18.510    5.4028
   18.645    5.3923
   18.780    5.0132
   18.915    5.2554
   19.050    5.4660
   19.185    5.2133
   19.320    5.5187
   19.455    5.7715
   19.590    5.8978
   19.725    6.3823
   19.860    6.0348
   19.995    6.3296
   20.130    6.3296
   20.265    5.8136
   20.400    5.8136
   20.535    5.9926
   20.670    6.0242
   20.805    5.8241
   20.940    6.1085
   21.075    6.1401
   21.210    6.0874
   21.345    5.8031
   21.480    5.6135
   21.615    6.1506
   21.750    5.8452
   21.885    6.2665
   22.020    5.7504
   22.155    6.1717
   22.290    6.0348
   22.425    5.5503
   22.560    5.9400
   22.695    6.1822
   22.830    5.7609
   22.965    5.7715
   23.100    5.4450
   23.235    5.8136
   23.370    5.7293
   23.505    5.5924
   23.640    5.6556
   23.775    5.6345
   23.910    5.6872
   24.045    5.6451
   24.180    5.7504
   24.315    5.5924
   24.450    5.5082
   24.585    5.7399
   24.720    5.8978
   24.855    5.3397
   24.990    5.5187
   25.125    5.6977
   25.260    5.3081
   25.395    5.2449
   25.530    5.9189
   25.665    5.3186
   25.800    5.1711
   25.935    5.1290
   26.070    5.0658
   26.205    5.1817
   26.340    5.1080
   26.475    5.2554
   26.610    5.1606
   26.745    5.3607
   26.880    4.9184
   27.015    4.7077
   27.150    4.8552
   27.285    4.6130
   27.420    4.8763
   27.555    5.2449
   27.690    4.7709
   27.825    4.9289
   27.960    5.0237
   28.095    5.4134
   28.230    5.2133
   28.365    4.7288
   28.500    5.0974
   28.635    5.0342
   28.770    4.8552
   28.905    4.7920
   29.040    4.9078
   29.175    4.8025
   29.310    4.8341
   29.445    4.4550
   29.580    4.5708
   29.715    4.7393
   29.850    4.8552
   29.985    4.6656
   30.120    4.6972
   30.255    4.8657
   30.390    4.6445
   30.525    4.5814
   30.660    4.5076
   30.795    4.5814
   30.930    4.4760
   31.065    4.5498
   31.200    4.6867
   31.335    4.5919
   31.470    4.8341
   31.605    4.6761
   31.740    4.5392
   31.875    4.6761
   32.010    4.5287
   32.145    4.3813
   32.280    4.4760
   32.415    4.4128
   32.550    4.1917
   32.685    3.9389
   32.820    4.2865
   32.955    4.4339
   33.090    3.9494
   33.225    4.3286
   33.360    3.9389
   33.495    4.3602
   33.630    4.1601
   33.765    4.0758
   33.900    4.2759
   34.035    3.9810
   34.170    4.2654
   34.305    4.1285
   34.440    4.0864
   34.575    3.9810
   34.710    4.0864
   34.845    4.0442
   34.980    4.0758
   35.115    4.0442
   35.250    3.9705
   35.385    3.8968
   35.520    3.8968
   35.655    3.7704
   35.790    3.9705
   35.925    3.8652
   36.060    4.2022
   36.195    3.7072
   36.330    3.8757
   36.465    4.1285
   36.600    4.0337
   36.735    3.7599
   36.870    3.7388
   37.005    3.6967
   37.140    3.6862
   37.275    3.6124
   37.410    3.7388
   37.545    3.6335
   37.680    3.8441
   37.815    3.6546
   37.950    3.5914
   38.085    3.8231
   38.220    3.8863
   38.355    3.6019
   38.490    3.7072
   38.625    3.5071
   38.760    3.6230
   38.895    3.6124
   39.030    3.6335
   39.165    3.6756
   39.300    3.5914
   39.435    3.9600
   39.570    3.7283
   39.705    3.6546
   39.840    3.4650
   39.975    3.5598
   39.990    3.4966