File: data/PXRD/PXRD_KE-067_Cu-Ka1_capillary-1mm_5s-deg.xyd
    1.500   15.5345
    1.635   14.6814
    1.770   14.1548
    1.905   13.6282
    2.040   13.1964
    2.175   13.6704
    2.310   14.7446
    2.445   15.2291
    2.580   17.2196
    2.715   19.0100
    2.850   22.8120
    2.985   27.2459
    3.120   34.3023
    3.255   47.3512
    3.390   72.3117
    3.525   92.0906
    3.660   41.8431
    3.795   48.2149
    3.930   70.9005
    4.065   38.3360
    4.200   24.2759
    4.335   14.8920
    4.470    9.8578
    4.605    7.7936
    4.740    7.2249
    4.875    6.9300
    5.010    7.1722
    5.145    7.1722
    5.280    7.4776
    5.415    9.4892
    5.550   15.0395
    5.685    5.6767
    5.820    5.8873
    5.955    5.5292
    6.090    5.3607
    6.225    5.8768
    6.360    5.7188
    6.495    6.6456
    6.630    7.5513
    6.765   10.6898
    6.900   10.7109
    7.035   12.1643
    7.170    6.7509
    7.305    5.5292
    7.440    5.8452
    7.575    6.4139
    7.710    7.5513
    7.845    8.8889
    7.980    7.9305
    8.115    7.9516
    8.250    7.3512
    8.385    6.7930
    8.520    6.4244
    8.655    5.7188
    8.790    5.6661
    8.925    5.4976
    9.060    5.1606
    9.195    5.4239
    9.330    5.6345
    9.465    6.1927
    9.600    9.0995
    9.735    4.9078
    9.870    4.9816
   10.005    4.9605
   10.140    5.4028
   10.275    5.3923
   10.410    5.9821
   10.545    5.5714
   10.680    5.6135
   10.815    5.0553
   10.950    5.4555
   11.085    6.1190
   11.220    4.9184
   11.355    5.1080
   11.490    5.1395
   11.625    5.1501
   11.760    6.2875
   11.895    5.1501
   12.030    5.6029
   12.165    5.2238
   12.300    5.3291
   12.435    5.1290
   12.570    4.9921
   12.705    4.8131
   12.840    5.3607
   12.975    6.2349
   13.110    4.9710
   13.245    5.0026
   13.380    5.0342
   13.515    5.3607
   13.650    4.8657
   13.785    4.7288
   13.920    5.0132
   14.055    5.0553
   14.190    4.9289
   14.325    4.8552
   14.460    4.5919
   14.595    4.6445
   14.730    4.5076
   14.865    4.8341
   15.000    4.9184
   15.135    4.5182
   15.270    4.6972
   15.405    4.8131
   15.540    4.8973
   15.675    4.7288
   15.810    4.9500
   15.945    4.5708
   16.080    4.7499
   16.215    5.0764
   16.350    4.8236
   16.485    4.5287
   16.620    4.5603
   16.755    4.5708
   16.890    4.6130
   17.025    5.0448
   17.160    5.0553
   17.295    4.6972
   17.430    4.6235
   17.565    5.2133
   17.700    5.0237
   17.835    4.6761
   17.970    4.6761
   18.105    5.1711
   18.240    4.7815
   18.375    5.0448
   18.510    4.9289
   18.645    4.8025
   18.780    4.5392
   18.915    4.9710
   19.050    4.8552
   19.185    5.2027
   19.320    4.7077
   19.455    5.4871
   19.590    5.0974
   19.725    5.0974
   19.860    5.0026
   19.995    5.1080
   20.130    5.0764
   20.265    5.2133
   20.400    5.5503
   20.535    5.3607
   20.670    4.9394
   20.805    4.9500
   20.940    5.3712
   21.075    5.4134
   21.210    4.9816
   21.345    5.3818
   21.480    5.3607
   21.615    5.3923
   21.750    5.2659
   21.885    5.2343
   22.020    5.0448
   22.155    5.1817
   22.290    5.0764
   22.425    5.3291
   22.560    5.6872
   22.695    5.1501
   22.830    5.3607
   22.965    5.8452
   23.100    5.2659
   23.235    5.1395
   23.370    5.4344
   23.505    5.1711
   23.640    5.6029
   23.775    4.8657
   23.910    4.8341
   24.045    5.2449
   24.180    4.9184
   24.315    5.1606
   24.450    4.9078
   24.585    5.1606
   24.720    4.7393
   24.855    5.0974
   24.990    5.0869
   25.125    4.9394
   25.260    4.8763
   25.395    4.7077
   25.530    4.9816
   25.665    4.5287
   25.800    4.8236
   25.935    4.7393
   26.070    4.9078
   26.205    4.3918
   26.340    4.1285
   26.475    4.7709
   26.610    4.4128
   26.745    4.7815
   26.880    4.6867
   27.015    4.5392
   27.150    4.5708
   27.285    4.4023
   27.420    4.4234
   27.555    4.3181
   27.690    4.6656
   27.825    4.4971
   27.960    4.7077
   28.095    4.7288
   28.230    4.8657
   28.365    4.2549
   28.500    4.7499
   28.635    4.4023
   28.770    4.4866
   28.905    4.4128
   29.040    4.4444
   29.175    4.3391
   29.310    4.6867
   29.445    4.3286
   29.580    4.2233
   29.715    4.0653
   29.850    4.2759
   29.985    4.3602
   30.120    4.1285
   30.255    4.1601
   30.390    4.1706
   30.525    4.0337
   30.660    4.0864
   30.795    4.0442
   30.930    4.0864
   31.065    4.0442
   31.200    4.0337
   31.335    4.3602
   31.470    3.9705
   31.605    4.4234
   31.740    4.2654
   31.875    4.0969
   32.010    3.9916
   32.145    4.9394
   32.280    3.9810
   32.415    3.8125
   32.550    3.6651
   32.685    3.7704
   32.820    3.8336
   32.955    3.9494
   33.090    3.6440
   33.225    3.4650
   33.360    3.4544
   33.495    3.6756
   33.630    3.7704
   33.765    3.7072
   33.900    4.1285
   34.035    3.5598
   34.170    3.5808
   34.305    3.3386
   34.440    3.6546
   34.575    3.5703
   34.710    3.4966
   34.845    3.4229
   34.980    3.2965
   35.115    3.3491
   35.250    3.5914
   35.385    3.1912
   35.520    3.4018
   35.655    3.2649
   35.790    3.4334
   35.925    3.4544
   36.060    3.2965
   36.195    3.3913
   36.330    3.5071
   36.465    3.0858
   36.600    3.2438
   36.735    3.2754
   36.870    3.0964
   37.005    3.4439
   37.140    3.3807
   37.275    3.3386
   37.410    3.2017
   37.545    3.4544
   37.680    3.2227
   37.815    3.1174
   37.950    3.5914
   38.085    3.4334
   38.220    3.0437
   38.355    2.9173
   38.490    3.3070
   38.625    3.3175
   38.760    3.2122
   38.895    3.4334
   39.030    3.3281
   39.165    3.0332
   39.300    3.4966
   39.435    3.2017
   39.570    2.9279
   39.705    3.2227
   39.840    3.1385
   39.975    3.1385
   39.990    3.0648