File: data/PXRD/PXRD_KE-231_Co-Ka1_capillary-1mm_5s-deg.xyd
    1.500   10.5725
    1.635    9.4810
    1.770    8.7105
    1.905    8.1006
    2.040    6.8165
    2.175    6.6025
    2.310    6.0139
    2.445    5.8427
    2.580    5.7143
    2.715    5.3398
    2.850    5.2327
    2.985    5.2755
    3.120    5.1899
    3.255    5.5324
    3.390    6.1744
    3.525    7.3729
    3.660    9.4703
    3.795   12.0385
    3.930   17.4318
    4.065   21.9262
    4.200   20.7812
    4.335   32.7448
    4.470   72.3382
    4.605    8.6035
    4.740    4.2804
    4.875    2.8678
    5.010    2.0974
    5.145    2.1188
    5.280    2.0974
    5.415    2.1295
    5.550    2.1509
    5.685    2.3007
    5.820    2.5575
    5.955    3.6062
    6.090    5.9283
    6.225   10.5939
    6.360   27.7689
    6.495    1.8192
    6.630    1.3804
    6.765    1.4553
    6.900    1.3269
    7.035    1.3269
    7.170    1.3162
    7.305    1.3162
    7.440    1.7335
    7.575    2.1402
    7.710    3.7239
    7.845   10.7009
    7.980    2.3649
    8.115    3.0498
    8.250    1.4767
    8.385    1.3055
    8.520    1.3162
    8.655    1.6265
    8.790    2.3649
    8.925    4.0128
    9.060   13.3547
    9.195    1.8299
    9.330    1.2841
    9.465    1.0487
    9.600    1.1557
    9.735    1.0808
    9.870    1.1236
   10.005    1.3697
   10.140    2.5896
   10.275    0.8240
   10.410    0.9417
   10.545    1.0915
   10.680    1.1878
   10.815    1.8192
   10.950    3.7132
   11.085   15.3237
   11.220    1.0808
   11.355    1.0273
   11.490    0.9524
   11.625    0.8454
   11.760    1.0915
   11.895    2.0439
   12.030    4.7084
   12.165    0.9631
   12.300    0.7598
   12.435    0.9738
   12.570    1.0594
   12.705    1.9690
   12.840    7.2980
   12.975    1.0273
   13.110    0.8133
   13.245    0.8240
   13.380    1.0594
   13.515    2.1830
   13.650    5.7464
   13.785    0.8240
   13.920    0.9203
   14.055    0.8775
   14.190    0.8347
   14.325    1.0701
   14.460    0.8240
   14.595    0.6956
   14.730    0.8026
   14.865    0.8454
   15.000    1.6372
   15.135    1.7549
   15.270    0.6207
   15.405    0.7384
   15.540    0.8775
   15.675    1.3483
   15.810    1.3590
   15.945    0.6849
   16.080    0.7598
   16.215    1.0059
   16.350    2.2686
   16.485    1.1236
   16.620    0.6100
   16.755    0.7277
   16.890    0.8882
   17.025    0.6956
   17.160    0.7384
   17.295    0.5993
   17.430    0.7705
   17.565    0.8989
   17.700    0.8454
   17.835    0.6207
   17.970    0.7170
   18.105    0.6956
   18.240    0.8133
   18.375    0.8882
   18.510    0.7170
   18.645    0.7919
   18.780    1.2734
   18.915    0.7170
   19.050    0.6528
   19.185    0.7384
   19.320    1.0594
   19.455    0.6742
   19.590    0.8454
   19.725    1.0487
   19.860    3.4350
   19.995    0.7491
   20.130    0.7491
   20.265    0.8454
   20.400    1.1450
   20.535    0.6528
   20.670    0.7170
   20.805    0.8347
   20.940    0.9203
   21.075    0.6849
   21.210    0.7705
   21.345    1.0808
   21.480    0.9524
   21.615    0.8133
   21.750    0.7598
   21.885    0.9096
   22.020    0.9738
   22.155    1.0594
   22.290    0.8240
   22.425    0.8454
   22.560    0.5564
   22.695    0.7384
   22.830    1.4339
   22.965    0.6849
   23.100    0.6421
   23.235    0.8775
   23.370    0.8454
   23.505    0.8240
   23.640    1.0808
   23.775    1.9048
   23.910    0.7598
   24.045    0.8133
   24.180    0.7491
   24.315    0.7919
   24.450    0.7491
   24.585    0.8026
   24.720    0.7277
   24.855    0.8454
   24.990    0.7277
   25.125    0.8347
   25.260    0.8454
   25.395    1.0487
   25.530    1.0166
   25.665    0.8561
   25.800    0.8989
   25.935    1.0915
   26.070    0.7598
   26.205    1.5516
   26.340    2.0974
   26.475    1.0487
   26.610    1.6158
   26.745    2.0011
   26.880    1.0166
   27.015    1.0594
   27.150    1.0166
   27.285    0.8454
   27.420    0.9524
   27.555    0.8133
   27.690    0.7491
   27.825    1.1129
   27.960    0.8668
   28.095    0.7277
   28.230    0.8240
   28.365    0.7063
   28.500    0.7277
   28.635    0.7277
   28.770    0.7170
   28.905    0.7170
   29.040    0.8133
   29.175    0.7384
   29.310    0.8775
   29.445    0.6528
   29.580    0.6635
   29.715    0.9203
   29.850    0.6956
   29.985    1.1129
   30.120    1.7121
   30.255    0.6742
   30.390    0.6956
   30.525    0.7705
   30.660    0.6956
   30.795    1.0273
   30.930    0.5778
   31.065    0.6849
   31.200    0.6742
   31.335    0.8133
   31.470    1.0273
   31.605    0.8240
   31.740    0.7812
   31.875    0.6207
   32.010    0.6314
   32.145    0.8561
   32.280    0.6849
   32.415    0.5671
   32.550    0.9096
   32.685    0.8133
   32.820    1.1450
   32.955    0.8454
   33.090    0.6849
   33.225    0.8454
   33.360    0.4494
   33.495    0.6956
   33.630    0.5886
   33.765    0.9310
   33.900    0.5457
   34.035    0.6635
   34.170    0.8347
   34.305    0.5671
   34.440    0.4922
   34.575    0.4708
   34.710    0.4922
   34.845    0.6421
   34.980    0.5457
   35.115    0.6314
   35.250    0.4708
   35.385    0.6956
   35.520    0.5136
   35.655    0.5350
   35.790    0.5350
   35.925    0.5243
   36.060    0.4922
   36.195    0.4708
   36.330    0.4387
   36.465    0.4280
   36.600    0.6314
   36.735    0.6635
   36.870    0.4922
   37.005    0.8454
   37.140    0.8347
   37.275    0.6207
   37.410    1.2306
   37.545    0.8775
   37.680    0.4494
   37.815    0.5778
   37.950    0.3638
   38.085    0.4815
   38.220    0.4173
   38.355    0.6207
   38.490    0.4922
   38.625    0.4922
   38.760    0.4922
   38.895    0.4922
   39.030    0.4494
   39.165    0.5136
   39.300    0.4922
   39.435    0.6528
   39.570    0.7919
   39.705    0.5350
   39.840    0.4922
   39.975    0.4387
   39.990    0.3852