File: data/PXRD/PXRD_KE-321A_Cu-Ka1_capillary-1mm_3s-deg.xyd
    1.500   14.1829
    1.665   11.9010
    1.830    9.9526
    1.995    8.6361
    2.160    7.8989
    2.325    7.3196
    2.490    7.4776
    2.655    7.0212
    2.820    6.4771
    2.985    7.0037
    3.150    7.7234
    3.315    7.9691
    3.480   10.2335
    3.645   12.6382
    3.810   28.0674
    3.975    6.5649
    4.140    5.5994
    4.305    5.4941
    4.470    5.2835
    4.635    5.3537
    4.800    5.3537
    4.965    6.2313
    5.130    6.9686
    5.295    8.9170
    5.460   15.7627
    5.625    5.1431
    5.790    4.7920
    5.955    5.1255
    6.120    4.9851
    6.285    5.2308
    6.450    5.4590
    6.615    6.7930
    6.780    5.7750
    6.945    4.8095
    7.110    5.4590
    7.275    5.6170
    7.440    5.5117
    7.605    6.0383
    7.770    6.5122
    7.935    5.7048
    8.100    5.5643
    8.265    5.7223
    8.430    5.4590
    8.595    5.9505
    8.760    5.6521
    8.925    5.3712
    9.090    6.1085
    9.255    5.9154
    9.420    8.0920
    9.585    6.6175
    9.750    6.1436
    9.915    5.8101
   10.080    6.0207
   10.245    6.9686
   10.410    5.9681
   10.575    5.7223
   10.740    5.8803
   10.905    5.9681
   11.070    5.4590
   11.235    5.1606
   11.400    5.6872
   11.565    6.1962
   11.730    6.1962
   11.895    5.5643
   12.060    5.2133
   12.225    4.8622
   12.390    5.2308
   12.555    5.3888
   12.720    5.1782
   12.885    5.6345
   13.050    4.7920
   13.215    5.2484
   13.380    5.0728
   13.545    5.1957
   13.710    4.8095
   13.875    4.9500
   14.040    5.9505
   14.205    5.1957
   14.370    5.1431
   14.535    4.9149
   14.700    4.8798
   14.865    5.0377
   15.030    4.9324
   15.195    4.9851
   15.360    4.9324
   15.525    5.0202
   15.690    5.0377
   15.855    4.9149
   16.020    5.2133
   16.185    4.9149
   16.350    4.5463
   16.515    4.9324
   16.680    4.8622
   16.845    5.0553
   17.010    5.1431
   17.175    5.0026
   17.340    5.0553
   17.505    5.1782
   17.670    4.7744
   17.835    5.1957
   18.000    4.7042
   18.165    5.0202
   18.330    4.9675
   18.495    4.7744
   18.660    5.1080
   18.825    5.2484
   18.990    5.4941
   19.155    4.9149
   19.320    4.7042
   19.485    5.3712
   19.650    4.8271
   19.815    4.8622
   19.980    4.8798
   20.145    5.1255
   20.310    5.1080
   20.475    5.2484
   20.640    5.2835
   20.805    4.5287
   20.970    5.3888
   21.135    5.4064
   21.300    5.1080
   21.465    5.4766
   21.630    5.0026
   21.795    5.1255
   21.960    5.2308
   22.125    4.9851
   22.290    5.0377
   22.455    5.6697
   22.620    5.1606
   22.785    5.5819
   22.950    4.7744
   23.115    4.8622
   23.280    5.8803
   23.445    5.2133
   23.610    5.2835
   23.775    5.3537
   23.940    5.3712
   24.105    5.1957
   24.270    4.9851
   24.435    5.0377
   24.600    5.1431
   24.765    4.9851
   24.930    5.3186
   25.095    4.5814
   25.260    5.0553
   25.425    4.9324
   25.590    4.7393
   25.755    4.7920
   25.920    4.7042
   26.085    5.1606
   26.250    4.5287
   26.415    5.1606
   26.580    4.9675
   26.745    4.4058
   26.910    5.1431
   27.075    4.4936
   27.240    4.4585
   27.405    4.6691
   27.570    4.6691
   27.735    4.3005
   27.900    4.6867
   28.065    4.6867
   28.230    4.4585
   28.395    4.6516
   28.560    4.1776
   28.725    4.3181
   28.890    4.6867
   29.055    4.3883
   29.220    4.4409
   29.385    4.3707
   29.550    4.5287
   29.715    4.5989
   29.880    4.5638
   30.045    3.9846
   30.210    4.4760
   30.375    4.3532
   30.540    4.0372
   30.705    4.0021
   30.870    4.3181
   31.035    3.9670
   31.200    4.0372
   31.365    3.8266
   31.530    4.1250
   31.695    4.1425
   31.860    4.3707
   32.025    4.2127
   32.190    4.1601
   32.355    4.0372
   32.520    3.9494
   32.685    3.8090
   32.850    3.8441
   33.015    3.9319
   33.180    3.3877
   33.345    3.7564
   33.510    4.0021
   33.675    3.9670
   33.840    3.8617
   34.005    4.1074
   34.170    4.0548
   34.335    4.0197
   34.500    3.4580
   34.665    4.0372
   34.830    3.8968
   34.995    3.6335
   35.160    3.7564
   35.325    3.9846
   35.490    4.0197
   35.655    4.1776
   35.820    3.6862
   35.985    4.0021
   36.150    3.7213
   36.315    3.4229
   36.480    3.5282
   36.645    4.0021
   36.810    3.5984
   36.975    3.8090
   37.140    3.4580
   37.305    3.8441
   37.470    3.4755
   37.635    3.3351
   37.800    3.8968
   37.965    3.4580
   38.130    3.6335
   38.295    3.7213
   38.460    3.8968
   38.625    3.9846
   38.790    3.7213
   38.955    3.2824
   39.120    3.4755
   39.285    3.4404
   39.450    3.6159
   39.615    3.4931
   39.780    3.5282
   39.945    4.0723
   40.110    3.4755
   40.275    3.4931
   40.440    3.6335
   40.605    3.6159
   40.770    3.8792
   40.935    3.7915
   41.100    3.7564
   41.265    3.6510
   41.430    3.7037
   41.595    3.6862
   41.760    3.6510
   41.925    3.5808
   42.090    3.4931
   42.255    3.5808
   42.420    3.5633
   42.585    3.3702
   42.750    3.8090
   42.915    3.7037
   43.080    3.5984
   43.245    3.6862
   43.410    3.5808
   43.575    3.3351
   43.740    3.6335
   43.905    3.8441
   44.070    3.6862
   44.235    3.6335
   44.400    3.4580
   44.565    3.4229
   44.730    3.7915
   44.895    3.2649
   45.060    3.7388
   45.225    3.5106
   45.390    3.3877
   45.555    3.3000
   45.720    3.4229
   45.885    3.4755
   46.050    3.5106
   46.215    3.5633
   46.380    3.4404
   46.545    3.3351
   46.710    3.2649
   46.875    3.1947
   47.040    3.4229
   47.205    3.3000
   47.370    3.4580
   47.535    3.2649
   47.700    3.3526
   47.865    3.8441
   48.030    3.4931
   48.195    3.3000
   48.360    3.8968
   48.525    3.6335
   48.690    3.0016
   48.855    3.2649
   49.020    3.5633
   49.185    3.1771
   49.350    3.4580
   49.515    3.7037
   49.680    3.8266
   49.845    3.4053
   49.980    3.2824