File: data/PXRD/PXRD_KE-208_Co-Ka1_film-3mm_5s-deg.xyd
    1.500    7.4585
    1.635    6.1958
    1.770    5.3612
    1.905    4.6549
    2.040    3.7132
    2.175    3.3922
    2.310    2.8999
    2.445    2.7394
    2.580    2.6110
    2.715    2.6752
    2.850    2.4612
    2.985    2.0011
    3.120    1.8620
    3.255    1.9476
    3.390    1.8620
    3.525    2.0011
    3.660    1.8834
    3.795    1.7871
    3.930    1.9262
    4.065    1.6586
    4.200    1.7764
    4.335    1.7764
    4.470    1.6479
    4.605    1.9155
    4.740    1.8299
    4.875    1.6693
    5.010    1.7442
    5.145    1.5409
    5.280    1.7014
    5.415    1.9476
    5.550    1.7549
    5.685    1.5944
    5.820    1.7657
    5.955    1.7871
    6.090    2.0332
    6.225    2.0974
    6.360    2.0867
    6.495    2.2151
    6.630    2.1509
    6.765    2.2686
    6.900    1.9690
    7.035    1.8299
    7.170    1.5302
    7.305    1.4874
    7.440    1.5837
    7.575    1.5409
    7.710    1.5516
    7.845    1.3269
    7.980    1.4125
    8.115    1.3911
    8.250    1.3590
    8.385    1.3376
    8.520    1.2841
    8.655    1.2092
    8.790    1.2841
    8.925    1.1557
    9.060    1.1985
    9.195    1.1022
    9.330    1.0808
    9.465    1.1771
    9.600    1.0808
    9.735    0.8454
    9.870    1.0594
   10.005    1.0059
   10.140    0.8989
   10.275    1.0701
   10.410    0.9096
   10.545    0.8882
   10.680    0.9524
   10.815    1.1129
   10.950    0.8668
   11.085    1.0808
   11.220    0.8775
   11.355    0.9524
   11.490    1.0059
   11.625    0.8561
   11.760    0.8454
   11.895    0.8133
   12.030    1.0059
   12.165    1.0380
   12.300    0.7919
   12.435    0.8775
   12.570    0.9096
   12.705    0.8668
   12.840    0.9310
   12.975    0.9524
   13.110    0.7919
   13.245    0.8989
   13.380    0.8882
   13.515    1.0808
   13.650    0.9952
   13.785    1.0059
   13.920    0.9631
   14.055    1.0915
   14.190    0.7919
   14.325    0.7705
   14.460    0.9524
   14.595    0.9310
   14.730    0.9417
   14.865    0.9417
   15.000    0.8133
   15.135    1.0594
   15.270    0.8775
   15.405    0.8561
   15.540    0.9417
   15.675    0.9417
   15.810    0.9096
   15.945    1.0059
   16.080    0.9203
   16.215    1.0273
   16.350    0.9203
   16.485    0.9952
   16.620    1.0915
   16.755    0.9845
   16.890    0.9845
   17.025    1.0701
   17.160    1.0915
   17.295    0.8347
   17.430    0.9524
   17.565    1.1129
   17.700    0.8133
   17.835    0.8668
   17.970    0.8668
   18.105    0.8561
   18.240    0.7705
   18.375    0.9631
   18.510    0.9952
   18.645    0.8989
   18.780    0.9203
   18.915    0.9096
   19.050    0.8454
   19.185    0.8347
   19.320    0.9096
   19.455    0.9310
   19.590    0.8989
   19.725    0.8240
   19.860    0.8882
   19.995    0.9096
   20.130    0.8882
   20.265    0.9096
   20.400    0.7705
   20.535    0.9203
   20.670    0.7812
   20.805    0.8347
   20.940    0.9952
   21.075    0.9845
   21.210    0.9203
   21.345    0.8561
   21.480    0.9845
   21.615    0.8882
   21.750    0.7919
   21.885    0.9524
   22.020    0.9203
   22.155    0.7812
   22.290    0.8561
   22.425    0.8026
   22.560    0.7919
   22.695    0.9631
   22.830    0.8882
   22.965    0.7277
   23.100    0.8347
   23.235    0.7705
   23.370    0.6956
   23.505    0.6849
   23.640    0.7384
   23.775    0.6314
   23.910    0.6635
   24.045    0.8026
   24.180    0.6956
   24.315    0.7170
   24.450    0.8882
   24.585    0.7170
   24.720    0.7384
   24.855    0.6956
   24.990    0.7170
   25.125    0.8454
   25.260    0.8561
   25.395    0.7170
   25.530    0.8775
   25.665    0.6849
   25.800    0.6849
   25.935    0.7705
   26.070    0.8561
   26.205    0.5886
   26.340    0.6207
   26.475    0.6849
   26.610    0.7598
   26.745    0.5778
   26.880    0.7384
   27.015    0.5671
   27.150    0.5350
   27.285    0.4922
   27.420    0.6421
   27.555    0.6528
   27.690    0.7063
   27.825    0.5778
   27.960    0.7491
   28.095    0.6956
   28.230    0.6528
   28.365    0.5350
   28.500    0.6314
   28.635    0.5671
   28.770    0.5457
   28.905    0.5564
   29.040    0.5886
   29.175    0.5993
   29.310    0.7063
   29.445    0.5350
   29.580    0.6849
   29.715    0.5029
   29.850    0.6314
   29.985    0.5671
   30.120    0.5671
   30.255    0.5243
   30.390    0.5350
   30.525    0.5457
   30.660    0.5564
   30.795    0.6528
   30.930    0.4815
   31.065    0.4708
   31.200    0.4601
   31.335    0.5778
   31.470    0.5671
   31.605    0.4815
   31.740    0.4815
   31.875    0.4922
   32.010    0.4922
   32.145    0.3424
   32.280    0.5243
   32.415    0.5136
   32.550    0.3745
   32.685    0.4173
   32.820    0.4173
   32.955    0.5778
   33.090    0.4708
   33.225    0.4387
   33.360    0.4601
   33.495    0.5029
   33.630    0.4387
   33.765    0.4387
   33.900    0.4922
   34.035    0.4494
   34.170    0.4494
   34.305    0.5778
   34.440    0.3959
   34.575    0.5029
   34.710    0.4601
   34.845    0.3638
   34.980    0.2889
   35.115    0.3959
   35.250    0.3424
   35.385    0.3852
   35.520    0.3424
   35.655    0.4494
   35.790    0.3852
   35.925    0.3745
   36.060    0.4066
   36.195    0.3210
   36.330    0.3959
   36.465    0.4066
   36.600    0.2568
   36.735    0.3317
   36.870    0.3424
   37.005    0.3852
   37.140    0.3852
   37.275    0.2889
   37.410    0.3210
   37.545    0.3210
   37.680    0.3638
   37.815    0.3424
   37.950    0.2782
   38.085    0.3210
   38.220    0.3424
   38.355    0.3210
   38.490    0.2889
   38.625    0.4173
   38.760    0.2568
   38.895    0.3531
   39.030    0.2568
   39.165    0.2140
   39.300    0.3424
   39.435    0.3210
   39.570    0.3638
   39.705    0.2461
   39.840    0.3103
   39.975    0.3103
   39.990    0.2568