File: data/PXRD/PXRD_KE-297_Cu-Ka1_film-3mm_3s-deg.xyd
    1.500   11.0760
    1.635   10.0228
    1.770    9.6015
    1.905    9.0925
    2.040    8.4606
    2.175    8.4255
    2.310    7.9516
    2.445    7.6180
    2.580    7.7936
    2.715    7.5127
    2.850    7.1266
    2.985    7.4601
    3.120    7.1968
    3.255    7.2494
    3.390    7.1441
    3.525    7.2845
    3.660    7.4425
    3.795    7.7058
    3.930    6.8282
    4.065    6.7404
    4.200    7.1968
    4.335    7.4776
    4.470    7.7936
    4.605    7.4250
    4.740    7.2670
    4.875    7.2143
    5.010    8.0042
    5.145    8.5484
    5.280    9.1101
    5.415   10.1457
    5.550   10.2510
    5.685    9.4085
    5.820    8.1446
    5.955    8.6010
    6.090    8.0218
    6.225    6.9159
    6.360    6.5649
    6.495    6.7404
    6.630    6.7579
    6.765    6.4420
    6.900    6.1085
    7.035    5.8452
    7.170    5.9505
    7.305    5.1255
    7.440    5.4064
    7.575    5.2308
    7.710    5.1957
    7.845    5.2659
    7.980    5.4239
    8.115    4.9149
    8.250    4.8973
    8.385    4.8271
    8.520    4.1776
    8.655    4.4936
    8.790    4.2830
    8.925    4.8095
    9.060    4.2654
    9.195    4.2830
    9.330    4.3883
    9.465    4.5989
    9.600    4.1425
    9.735    4.3181
    9.870    4.4058
   10.005    4.3883
   10.140    3.9846
   10.275    4.5638
   10.410    4.8973
   10.545    4.6165
   10.680    4.4936
   10.815    4.3356
   10.950    4.7042
   11.085    4.6691
   11.220    4.7920
   11.355    4.8271
   11.490    4.3883
   11.625    4.7042
   11.760    4.1250
   11.895    4.6340
   12.030    4.2127
   12.165    4.1776
   12.300    4.7393
   12.435    4.7042
   12.570    4.4585
   12.705    4.4585
   12.840    4.2303
   12.975    4.3532
   13.110    4.0723
   13.245    4.5814
   13.380    3.9143
   13.515    3.9670
   13.650    4.3707
   13.785    4.2830
   13.920    3.9143
   14.055    4.5814
   14.190    4.8095
   14.325    4.7920
   14.460    4.5989
   14.595    4.5111
   14.730    4.2830
   14.865    4.3707
   15.000    4.2830
   15.135    4.1425
   15.270    3.8441
   15.405    3.9319
   15.540    4.3181
   15.675    4.3005
   15.810    4.3532
   15.945    4.3356
   16.080    4.2127
   16.215    3.9319
   16.350    4.1074
   16.485    4.6165
   16.620    4.5814
   16.755    4.3707
   16.890    4.3356
   17.025    4.2654
   17.160    3.9319
   17.295    4.1250
   17.430    4.0197
   17.565    4.1074
   17.700    4.4760
   17.835    3.8968
   17.970    3.9494
   18.105    4.3181
   18.240    3.7564
   18.375    4.0197
   18.510    4.5111
   18.645    3.9670
   18.780    4.0021
   18.915    4.4585
   19.050    4.0899
   19.185    3.7213
   19.320    4.0899
   19.455    3.8090
   19.590    4.0548
   19.725    3.8266
   19.860    4.0723
   19.995    3.9143
   20.130    4.0372
   20.265    3.7037
   20.400    3.6510
   20.535    3.5633
   20.670    3.4755
   20.805    3.5633
   20.940    3.5633
   21.075    3.8968
   21.210    3.4404
   21.345    3.8968
   21.480    3.7739
   21.615    3.3175
   21.750    3.5106
   21.885    3.4931
   22.020    3.4580
   22.155    3.2473
   22.290    3.1771
   22.425    3.7037
   22.560    3.4755
   22.695    3.6686
   22.830    3.2824
   22.965    3.3000
   23.100    3.4053
   23.235    3.1420
   23.370    3.3000
   23.505    3.1771
   23.640    3.2298
   23.775    3.4404
   23.910    3.0367
   24.045    3.0718
   24.180    2.7383
   24.315    2.8787
   24.450    2.8612
   24.585    3.1420
   24.720    2.9489
   24.855    2.5803
   24.990    3.0016
   25.125    2.8260
   25.260    3.0016
   25.395    3.0893
   25.530    2.8085
   25.665    3.2298
   25.800    3.0718
   25.935    2.9840
   26.070    2.9138
   26.205    2.8436
   26.340    3.5106
   26.475    2.8612
   26.610    2.8085
   26.745    2.5452
   26.880    2.8787
   27.015    2.7909
   27.150    2.5803
   27.285    2.7207
   27.420    2.5101
   27.555    2.7558
   27.690    2.5803
   27.825    2.8787
   27.960    2.7909
   28.095    2.4048
   28.230    2.4048
   28.365    2.2292
   28.500    2.1064
   28.635    2.5101
   28.770    2.4399
   28.905    2.5803
   29.040    2.4048
   29.175    2.0186
   29.310    2.1941
   29.445    2.1941
   29.580    2.0713
   29.715    2.1239
   29.850    2.3697
   29.985    2.2468
   30.120    2.2292
   30.255    2.2468
   30.390    2.1415
   30.525    2.2819
   30.660    1.8080
   30.795    1.9835
   30.930    1.9484
   31.065    2.1590
   31.200    1.8957
   31.335    2.0888
   31.470    2.0011
   31.605    1.6675
   31.740    2.0713
   31.875    1.8255
   32.010    2.1766
   32.145    2.7207
   32.280    1.7027
   32.415    1.8255
   32.550    1.9835
   32.685    1.8606
   32.820    1.7553
   32.955    1.6851
   33.090    1.8606
   33.225    1.7904
   33.360    1.7378
   33.495    1.8255
   33.630    1.6500
   33.765    1.5271
   33.900    1.7027
   34.035    1.5271
   34.170    1.6675
   34.305    1.5973
   34.440    1.7202
   34.575    1.5973
   34.710    1.6324
   34.845    1.6851
   34.980    1.6851
   35.115    1.3165
   35.250    1.5096
   35.385    1.5973
   35.520    1.5973
   35.655    1.7378
   35.790    1.6149
   35.925    1.7027
   36.060    1.2814
   36.195    1.4569
   36.330    1.5622
   36.465    1.4569
   36.600    1.6500
   36.735    1.6149
   36.870    1.5447
   37.005    1.5271
   37.140    1.6500
   37.275    1.6149
   37.410    1.5096
   37.545    1.4218
   37.680    1.4569
   37.815    1.4042
   37.950    1.5798
   38.085    1.7904
   38.220    1.4745
   38.355    1.3867
   38.490    1.3691
   38.625    1.7378
   38.760    1.2463
   38.895    1.4745
   39.030    1.4569
   39.165    1.4218
   39.300    1.4569
   39.435    1.5447
   39.570    1.3516
   39.705    1.7202
   39.840    1.4042
   39.975    1.4218
   39.990    1.1585