File: data/PXRD/PXRD_Blank_Co-Ka1_film-8mm_3s-deg.xyd
    1.500    4.8511
    1.695    3.9593
    1.890    3.7632
    2.085    3.5670
    2.280    3.6918
    2.475    3.3708
    2.670    3.1746
    2.865    3.1568
    3.060    2.9963
    3.255    2.7109
    3.450    2.9428
    3.645    3.2103
    3.840    2.9071
    4.035    3.5313
    4.230    2.7822
    4.425    2.9963
    4.620    2.8357
    4.815    2.8536
    5.010    2.9784
    5.205    3.2638
    5.400    2.9071
    5.595    2.9071
    5.790    3.3173
    5.985    3.4065
    6.180    3.6561
    6.375    3.9058
    6.570    4.3874
    6.765    3.6383
    6.960    3.1389
    7.155    3.0319
    7.350    3.3351
    7.545    2.7287
    7.740    2.5682
    7.935    2.6396
    8.130    2.3185
    8.325    2.3185
    8.520    2.4612
    8.715    2.4969
    8.910    2.2294
    9.105    1.8013
    9.300    1.8370
    9.495    1.8013
    9.690    1.6943
    9.885    1.6408
   10.080    1.9440
   10.275    2.0688
   10.470    1.6943
   10.665    1.3733
   10.860    1.7657
   11.055    1.4625
   11.250    1.4446
   11.445    1.6051
   11.640    1.6051
   11.835    1.5338
   12.030    1.6051
   12.225    1.5338
   12.420    1.6943
   12.615    1.7300
   12.810    1.6586
   13.005    1.7478
   13.200    1.7835
   13.395    1.9797
   13.590    1.5160
   13.785    1.6586
   13.980    1.6943
   14.175    1.7121
   14.370    1.7657
   14.565    1.7835
   14.760    1.5873
   14.955    1.6943
   15.150    1.4981
   15.345    1.6943
   15.540    1.4090
   15.735    1.4090
   15.930    1.5338
   16.125    1.5516
   16.320    1.6051
   16.515    1.7300
   16.710    1.7835
   16.905    1.8727
   17.100    1.6586
   17.295    1.6765
   17.490    1.5338
   17.685    1.6408
   17.880    1.3554
   18.075    1.3733
   18.270    1.5873
   18.465    1.2663
   18.660    1.4268
   18.855    1.4981
   19.050    1.2128
   19.245    1.5695
   19.440    1.3911
   19.635    1.3911
   19.830    1.4090
   20.025    1.4090
   20.220    1.4090
   20.415    1.3376
   20.610    1.1771
   20.805    1.4446
   21.000    1.6408
   21.195    1.3911
   21.390    1.3554
   21.585    1.5160
   21.780    1.6230
   21.975    1.4625
   22.170    1.3554
   22.365    1.5338
   22.560    1.4625
   22.755    1.5695
   22.950    1.4090
   23.145    1.2841
   23.340    1.2306
   23.535    1.2663
   23.730    1.5338
   23.925    1.6408
   24.120    1.3733
   24.315    1.1236
   24.510    1.4625
   24.705    1.2484
   24.900    1.2128
   25.095    1.1949
   25.290    1.3733
   25.485    1.2128
   25.680    1.2306
   25.875    1.3198
   26.070    1.2484
   26.265    1.2128
   26.460    1.1771
   26.655    0.9274
   26.850    1.0879
   27.045    0.8382
   27.240    1.1771
   27.435    0.9631
   27.630    0.8026
   27.825    1.0879
   28.020    0.9274
   28.215    0.9809
   28.410    0.9452
   28.605    0.9274
   28.800    0.7491
   28.995    0.9096
   29.190    0.9096
   29.385    1.0344
   29.580    0.9452
   29.775    1.1414
   29.970    1.0701
   30.165    0.9631
   30.360    0.8026
   30.555    0.9096
   30.750    0.9452
   30.945    0.9631
   31.140    0.7134
   31.335    0.9631
   31.530    1.0166
   31.725    1.1593
   31.920    0.7847
   32.115    0.7312
   32.310    0.7669
   32.505    0.9631
   32.700    0.8026
   32.895    0.8561
   33.090    0.6956
   33.285    0.8026
   33.480    0.7134
   33.675    0.7312
   33.870    0.8739
   34.065    0.7134
   34.260    0.9809
   34.455    0.6956
   34.650    0.6599
   34.845    0.6242
   35.040    0.9809
   35.235    0.5350
   35.430    0.7134
   35.625    0.5707
   35.820    0.7134
   36.015    0.6956
   36.210    0.6599
   36.405    0.6242
   36.600    0.7312
   36.795    0.5707
   36.990    0.5172
   37.185    0.6064
   37.380    0.7134
   37.575    0.8561
   37.770    0.5707
   37.965    0.6242
   38.160    0.4994
   38.355    0.4637
   38.550    0.4459
   38.745    0.6064
   38.940    0.4637
   39.135    0.5350
   39.330    0.3924
   39.525    0.4637
   39.720    0.5172
   39.915    0.4459
   40.110    0.4280
   40.305    0.4102
   40.500    0.4102
   40.695    0.4815
   40.890    0.4637
   41.085    0.4994
   41.280    0.4102
   41.475    0.4637
   41.670    0.5172
   41.865    0.5350
   42.060    0.5529
   42.255    0.2497
   42.450    0.3924
   42.645    0.4459
   42.840    0.3924
   43.035    0.4994
   43.230    0.4994
   43.425    0.3924
   43.620    0.3745
   43.815    0.5529
   44.010    0.3745
   44.205    0.3567
   44.400    0.3924
   44.595    0.3032
   44.790    0.5172
   44.985    0.4459
   45.180    0.3745
   45.375    0.3924
   45.570    0.4637
   45.765    0.3032
   45.960    0.5529
   46.155    0.3032
   46.350    0.4994
   46.545    0.4280
   46.740    0.4994
   46.935    0.3032
   47.130    0.3924
   47.325    0.4994
   47.520    0.3745
   47.715    0.4994
   47.910    0.3567
   48.105    0.3745
   48.300    0.3389
   48.495    0.3389
   48.690    0.2319
   48.885    0.4459
   49.080    0.2854
   49.275    0.4280
   49.470    0.2497
   49.665    0.3032
   49.860    0.4459
   50.055    0.3210
   50.250    0.3032
   50.445    0.3745
   50.640    0.2675
   50.835    0.2675
   51.030    0.3210
   51.225    0.4280
   51.420    0.3210
   51.615    0.3745
   51.810    0.4994
   52.005    0.5172
   52.200    0.3210
   52.395    0.3745
   52.590    0.2497
   52.785    0.3210
   52.980    0.4102
   53.175    0.3745
   53.370    0.2854
   53.565    0.2497
   53.760    0.4459
   53.955    0.3389
   54.150    0.2675
   54.345    0.3745
   54.540    0.3210
   54.735    0.3210
   54.930    0.4102
   55.125    0.2854
   55.320    0.3745
   55.515    0.3745
   55.710    0.3745
   55.905    0.3210
   56.100    0.3032
   56.295    0.2854
   56.490    0.3032
   56.685    0.1783
   56.880    0.3567
   57.075    0.2854
   57.270    0.1248
   57.465    0.2675
   57.660    0.1962
   57.855    0.1605
   58.050    0.2675
   58.245    0.3032
   58.440    0.2497
   58.635    0.2854
   58.830    0.3032
   59.025    0.4280
   59.220    0.1427
   59.415    0.2319
   59.610    0.1962
   59.805    0.3032
   59.985    0.2854