File: data/PXRD/PXRD_KE-053-5_Cu-Ka1_film-3mm_5s-deg.xyd
    1.500    9.1943
    1.530    9.3734
    1.560    9.3944
    1.590    8.6888
    1.620    8.7625
    1.650    8.2254
    1.680    8.2464
    1.710    8.4044
    1.740    8.0463
    1.770    7.6567
    1.800    8.0147
    1.830    8.0253
    1.860    7.0879
    1.890    7.0248
    1.920    7.0774
    1.950    7.0985
    1.980    6.6983
    2.010    7.2670
    2.040    6.9194
    2.070    7.0142
    2.100    6.5929
    2.130    6.5298
    2.160    6.4455
    2.190    6.6561
    2.220    6.4560
    2.250    6.3402
    2.280    5.8768
    2.310    6.1401
    2.340    6.0874
    2.370    6.0979
    2.400    6.1085
    2.430    6.1190
    2.460    6.1506
    2.490    5.8557
    2.520    6.1506
    2.550    6.1401
    2.580    6.1085
    2.610    5.9189
    2.640    5.6240
    2.670    5.6029
    2.700    5.7609
    2.730    5.7293
    2.760    5.9189
    2.790    5.9294
    2.820    5.9084
    2.850    5.4344
    2.880    6.0769
    2.910    5.8452
    2.940    5.4344
    2.970    5.3397
    3.000    5.6135
    3.030    5.8978
    3.060    5.5082
    3.090    5.4976
    3.120    5.2554
    3.150    5.4239
    3.180    5.4450
    3.210    5.3502
    3.240    5.7293
    3.270    5.4450
    3.300    5.2554
    3.330    5.5608
    3.360    5.4134
    3.390    5.5082
    3.420    5.6977
    3.450    5.7504
    3.480    5.4555
    3.510    5.5503
    3.540    5.7293
    3.570    5.4871
    3.600    5.4660
    3.630    5.3607
    3.660    5.7715
    3.690    5.7188
    3.720    5.6345
    3.750    5.3397
    3.780    5.4555
    3.810    5.7188
    3.840    5.7504
    3.870    5.4660
    3.900    5.7715
    3.930    5.4660
    3.960    5.3397
    3.990    5.5082
    4.020    5.6345
    4.050    5.7820
    4.080    5.3186
    4.110    5.7609
    4.140    5.2238
    4.170    5.3923
    4.200    5.4450
    4.230    5.6029
    4.260    5.8557
    4.290    5.9294
    4.320    5.8452
    4.350    5.7188
    4.380    5.1290
    4.410    5.4660
    4.440    5.8978
    4.470    5.3818
    4.500    5.3397
    4.530    5.5398
    4.560    5.7293
    4.590    5.6345
    4.620    5.4660
    4.650    5.6240
    4.680    5.4871
    4.710    5.6872
    4.740    5.6556
    4.770    5.2238
    4.800    5.6767
    4.830    5.9926
    4.860    5.6240
    4.890    5.7083
    4.920    5.8873
    4.950    5.9189
    4.980    6.0348
    5.010    5.5398
    5.040    6.2981
    5.070    5.9294
    5.100    6.1822
    5.130    6.6877
    5.160    6.2875
    5.190    6.4455
    5.220    6.5929
    5.250    6.8352
    5.280    6.7825
    5.310    7.0458
    5.340    7.2354
    5.370    7.3407
    5.400    7.2354
    5.430    7.2143
    5.460    7.3934
    5.490    6.9932
    5.520    7.9200
    5.550    7.3091
    5.580    7.3618
    5.610    7.2459
    5.640    7.3407
    5.670    7.4460
    5.700    6.9405
    5.730    6.7930
    5.760    6.8457
    5.790    7.0669
    5.820    6.6667
    5.850    6.3402
    5.880    6.1085
    5.910    6.7404
    5.940    6.1506
    5.970    5.8452
    6.000    5.8873
    6.030    5.8136
    6.060    5.4555
    6.090    5.5924
    6.120    5.6029
    6.150    5.6135
    6.180    5.3291
    6.210    5.6240
    6.240    5.6556
    6.270    5.5292
    6.300    5.2659
    6.330    5.4766
    6.360    5.3818
    6.390    5.3081
    6.420    5.4028
    6.450    5.2027
    6.480    5.4871
    6.510    5.1185
    6.540    5.3186
    6.570    4.8341
    6.600    4.9710
    6.630    5.1395
    6.660    5.0448
    6.690    4.8868
    6.720    4.9500
    6.750    4.8341
    6.780    4.3707
    6.810    4.7077
    6.840    4.7288
    6.870    5.0132
    6.900    4.7709
    6.930    4.5603
    6.960    4.7499
    6.990    4.9289
    7.020    4.7815
    7.050    4.5708
    7.080    4.4023
    7.110    4.0653
    7.140    4.4550
    7.170    4.3813
    7.200    4.7077
    7.230    4.2127
    7.260    4.5708
    7.290    4.5287
    7.320    4.2549
    7.350    4.3075
    7.380    4.1285
    7.410    4.5498
    7.440    4.5182
    7.470    4.1917
    7.500    4.4866
    7.530    3.9179
    7.560    4.2127
    7.590    4.1706
    7.620    4.4339
    7.650    3.8125
    7.680    4.0021
    7.710    4.1496
    7.740    4.1180
    7.770    3.8652
    7.800    4.1496
    7.830    3.8231
    7.860    3.8547
    7.890    4.1285
    7.920    3.8336
    7.950    3.7915
    7.980    4.0021
    8.010    3.8968
    8.040    3.8652
    8.070    3.5282
    8.100    3.7704
    8.130    3.5914
    8.160    3.8125
    8.190    3.7177
    8.220    3.7809
    8.250    3.8020
    8.280    3.7599
    8.310    3.7915
    8.340    3.4966
    8.370    3.7072
    8.400    3.6230
    8.430    3.8757
    8.460    3.6651
    8.490    3.3807
    8.520    3.5282
    8.550    3.6546
    8.565    3.8231