File: data/PXRD/PXRD_KE-150_Cu-Ka1_capillary-1mm_5s-deg.xyd
    1.500   10.9321
    1.635    9.6788
    1.770    9.0363
    1.905    8.2149
    2.040    7.7304
    2.175    7.1827
    2.310    6.6140
    2.445    6.6351
    2.580    6.2138
    2.715    6.4666
    2.850    6.2454
    2.985    6.0453
    3.120    5.9505
    3.255    5.6767
    3.390    5.6451
    3.525    6.1822
    3.660    5.8662
    3.795    5.4028
    3.930    5.7188
    4.065    5.8768
    4.200    5.7925
    4.335    5.8873
    4.470    5.7188
    4.605    5.7609
    4.740    5.8662
    4.875    5.8662
    5.010    5.8768
    5.145    5.9926
    5.280    6.0137
    5.415    6.2454
    5.550    6.1506
    5.685    5.7293
    5.820    5.7609
    5.955    5.8978
    6.090    5.7293
    6.225    5.7293
    6.360    5.9716
    6.495    5.9294
    6.630    5.4239
    6.765    5.7399
    6.900    6.1401
    7.035    5.7715
    7.170    5.9610
    7.305    5.8452
    7.440    5.8873
    7.575    5.5608
    7.710    6.0769
    7.845    6.1717
    7.980    6.2454
    8.115    5.9926
    8.250    6.0348
    8.385    6.1085
    8.520    6.6351
    8.655    5.9189
    8.790    6.3718
    8.925    6.2454
    9.060    6.1085
    9.195    6.2559
    9.330    6.8878
    9.465    6.5508
    9.600    6.9405
    9.735    6.4771
    9.870    6.5298
   10.005    6.6456
   10.140    6.9089
   10.275    6.7088
   10.410    7.2038
   10.545    6.4876
   10.680    6.5719
   10.815    6.1506
   10.950    6.4560
   11.085    6.1717
   11.220    6.6983
   11.355    6.2770
   11.490    6.1611
   11.625    5.4555
   11.760    5.8347
   11.895    6.2875
   12.030    5.6135
   12.165    5.6872
   12.300    5.5292
   12.435    5.7083
   12.570    5.6135
   12.705    5.7399
   12.840    5.8031
   12.975    5.5082
   13.110    5.4450
   13.245    5.2449
   13.380    5.2554
   13.515    5.5924
   13.650    5.0342
   13.785    5.2765
   13.920    5.2133
   14.055    5.1711
   14.190    5.2133
   14.325    5.3186
   14.460    5.1606
   14.595    5.1817
   14.730    5.5398
   14.865    5.7399
   15.000    5.2449
   15.135    5.1817
   15.270    5.3607
   15.405    5.0026
   15.540    5.1922
   15.675    5.3397
   15.810    5.3397
   15.945    4.9710
   16.080    5.3818
   16.215    5.5714
   16.350    5.3397
   16.485    5.6977
   16.620    4.9289
   16.755    5.2659
   16.890    5.2659
   17.025    5.3186
   17.160    4.9816
   17.295    5.0658
   17.430    5.6135
   17.565    5.2449
   17.700    5.1080
   17.835    5.5187
   17.970    5.3291
   18.105    4.9921
   18.240    5.4976
   18.375    5.5292
   18.510    5.4028
   18.645    5.4239
   18.780    5.5503
   18.915    5.1290
   19.050    5.8347
   19.185    5.5608
   19.320    5.2975
   19.455    5.5187
   19.590    5.3607
   19.725    5.4555
   19.860    5.4976
   19.995    5.4660
   20.130    5.5608
   20.265    5.4239
   20.400    5.6029
   20.535    5.7609
   20.670    5.7820
   20.805    5.5187
   20.940    5.6977
   21.075    5.7609
   21.210    5.8662
   21.345    5.7820
   21.480    5.6135
   21.615    5.5714
   21.750    5.8557
   21.885    5.9926
   22.020    5.6451
   22.155    5.5187
   22.290    5.7609
   22.425    5.7293
   22.560    6.0558
   22.695    5.9610
   22.830    6.0137
   22.965    6.1085
   23.100    5.5187
   23.235    6.0979
   23.370    5.5398
   23.505    5.6135
   23.640    6.1085
   23.775    5.6240
   23.910    5.6451
   24.045    5.6556
   24.180    5.7399
   24.315    5.8662
   24.450    5.4344
   24.585    5.9716
   24.720    5.6767
   24.855    5.8557
   24.990    5.6767
   25.125    5.5924
   25.260    5.6556
   25.395    5.4450
   25.530    5.6661
   25.665    5.5714
   25.800    5.8662
   25.935    5.4028
   26.070    5.2975
   26.205    5.6451
   26.340    5.0974
   26.475    5.3502
   26.610    5.4450
   26.745    5.1606
   26.880    5.6345
   27.015    5.3923
   27.150    5.4871
   27.285    5.0553
   27.420    5.3397
   27.555    5.4450
   27.690    5.3397
   27.825    5.7925
   27.960    5.3923
   28.095    5.0448
   28.230    5.0764
   28.365    4.9816
   28.500    5.4028
   28.635    5.1395
   28.770    5.4134
   28.905    5.4344
   29.040    4.8341
   29.175    5.2133
   29.310    5.2975
   29.445    5.0658
   29.580    4.8447
   29.715    4.9184
   29.850    4.7920
   29.985    5.0132
   30.120    4.8657
   30.255    4.8552
   30.390    4.6340
   30.525    4.8025
   30.660    4.3497
   30.795    4.7815
   30.930    4.9605
   31.065    4.7393
   31.200    4.7709
   31.335    4.3918
   31.470    4.7604
   31.605    4.2970
   31.740    4.6656
   31.875    4.5708
   32.010    4.5708
   32.145    5.0764
   32.280    4.4339
   32.415    4.3181
   32.550    4.5392
   32.685    4.3286
   32.820    4.3602
   32.955    4.5708
   33.090    4.3075
   33.225    4.3286
   33.360    4.5287
   33.495    4.2233
   33.630    4.5076
   33.765    4.1390
   33.900    4.4128
   34.035    4.2759
   34.170    4.1074
   34.305    4.2338
   34.440    4.1706
   34.575    3.9916
   34.710    4.0126
   34.845    4.1285
   34.980    4.3075
   35.115    4.0758
   35.250    4.1917
   35.385    4.1811
   35.520    4.2443
   35.655    4.0653
   35.790    3.8652
   35.925    4.2654
   36.060    4.2022
   36.195    3.9494
   36.330    3.7493
   36.465    3.8231
   36.600    3.9284
   36.735    3.7388
   36.870    3.9600
   37.005    4.0758
   37.140    3.7809
   37.275    3.9284
   37.410    3.8968
   37.545    4.0021
   37.680    3.9073
   37.815    3.7283
   37.950    3.6124
   38.085    3.6967
   38.220    3.6335
   38.355    3.4860
   38.490    4.0232
   38.625    3.7072
   38.760    3.5703
   38.895    3.8125
   39.030    4.0548
   39.165    3.9916
   39.300    3.8547
   39.435    3.7283
   39.570    3.6230
   39.705    3.5808
   39.840    3.6651
   39.975    3.7283
   39.990    3.8968