File: data/PXRD/PXRD_KE-233_Co-Ka1_capillary-1mm_5s-deg.xyd
    1.500    9.0209
    1.635    8.1648
    1.770    7.2231
    1.905    6.9235
    2.040    6.4955
    2.175    5.8427
    2.310    5.2006
    2.445    4.8475
    2.580    5.1043
    2.715    4.2911
    2.850    4.4195
    2.985    4.2376
    3.120    4.2804
    3.255    4.4944
    3.390    4.5907
    3.525    5.4254
    3.660    6.4633
    3.795    8.1755
    3.930   10.5832
    4.065   15.0776
    4.200   22.5147
    4.335   38.5019
    4.470   89.3740
    4.605    2.9213
    4.740    2.0011
    4.875    1.9476
    5.010    1.9476
    5.145    1.6051
    5.280    1.9369
    5.415    1.5516
    5.550    1.7764
    5.685    1.8727
    5.820    2.2151
    5.955    2.9106
    6.090    4.1091
    6.225    7.7689
    6.360   18.7373
    6.495    1.2199
    6.630    1.3269
    6.765    1.1985
    6.900    1.1771
    7.035    1.2199
    7.170    1.0059
    7.305    1.2413
    7.440    1.3055
    7.575    1.2413
    7.710    1.4018
    7.845    3.5955
    7.980    1.0166
    8.115    1.0380
    8.250    0.9524
    8.385    1.0487
    8.520    1.1022
    8.655    1.2734
    8.790    1.8620
    8.925    2.8785
    9.060    9.8769
    9.195    0.8989
    9.330    1.0808
    9.465    0.9738
    9.600    0.7919
    9.735    0.9738
    9.870    1.0166
   10.005    1.0594
   10.140    2.0439
   10.275    0.9738
   10.410    0.8882
   10.545    1.1022
   10.680    1.1664
   10.815    1.6051
   10.950    3.0284
   11.085   11.3537
   11.220    0.7277
   11.355    0.8775
   11.490    0.7384
   11.625    0.9738
   11.760    1.1129
   11.895    1.5088
   12.030    5.2755
   12.165    0.7598
   12.300    0.7170
   12.435    0.7919
   12.570    0.9738
   12.705    1.5409
   12.840    6.4848
   12.975    0.7063
   13.110    0.7491
   13.245    0.8668
   13.380    1.0059
   13.515    1.5195
   13.650    4.5051
   13.785    0.7812
   13.920    0.6742
   14.055    0.7384
   14.190    0.8240
   14.325    0.9631
   14.460    0.7384
   14.595    0.7812
   14.730    0.8668
   14.865    0.7598
   15.000    1.4874
   15.135    1.2734
   15.270    0.7812
   15.405    0.7277
   15.540    0.7491
   15.675    1.3162
   15.810    1.0273
   15.945    0.6100
   16.080    0.6314
   16.215    0.9096
   16.350    1.6693
   16.485    0.6528
   16.620    0.7170
   16.755    0.7491
   16.890    0.5886
   17.025    0.6849
   17.160    0.6849
   17.295    0.6742
   17.430    0.7598
   17.565    0.8882
   17.700    0.6635
   17.835    0.6635
   17.970    0.6742
   18.105    0.7384
   18.240    0.5993
   18.375    0.6207
   18.510    0.6742
   18.645    0.8133
   18.780    1.9797
   18.915    0.6421
   19.050    0.7063
   19.185    0.7063
   19.320    1.7764
   19.455    0.7063
   19.590    0.7277
   19.725    0.7384
   19.860    3.9700
   19.995    0.7919
   20.130    0.7919
   20.265    0.6314
   20.400    1.0487
   20.535    0.7063
   20.670    0.7598
   20.805    0.8775
   20.940    0.9417
   21.075    0.7170
   21.210    0.7812
   21.345    1.1557
   21.480    0.8454
   21.615    0.7384
   21.750    0.5778
   21.885    0.9524
   22.020    0.7063
   22.155    0.7812
   22.290    0.7705
   22.425    0.8347
   22.560    0.8668
   22.695    1.0166
   22.830    2.0867
   22.965    0.7598
   23.100    0.7063
   23.235    0.9524
   23.370    0.6528
   23.505    0.8026
   23.640    1.1022
   23.775    2.3114
   23.910    0.6956
   24.045    0.7598
   24.180    0.7491
   24.315    0.8026
   24.450    0.8347
   24.585    0.8882
   24.720    0.7277
   24.855    0.6849
   24.990    0.7384
   25.125    0.7170
   25.260    0.6421
   25.395    1.1022
   25.530    1.2520
   25.665    0.7063
   25.800    0.8454
   25.935    1.0701
   26.070    0.8668
   26.205    1.4981
   26.340    2.5147
   26.475    0.8347
   26.610    1.4553
   26.745    2.7073
   26.880    0.7277
   27.015    0.9417
   27.150    1.1878
   27.285    0.7170
   27.420    0.9738
   27.555    0.6956
   27.690    0.7705
   27.825    1.4874
   27.960    0.9631
   28.095    0.7491
   28.230    0.9310
   28.365    0.6635
   28.500    0.7705
   28.635    1.0594
   28.770    0.7491
   28.905    0.7384
   29.040    0.8347
   29.175    0.7384
   29.310    1.0273
   29.445    0.7812
   29.580    0.5671
   29.715    1.1450
   29.850    0.6528
   29.985    0.8454
   30.120    2.3863
   30.255    0.8775
   30.390    0.8240
   30.525    0.8882
   30.660    0.5993
   30.795    1.2092
   30.930    0.7598
   31.065    0.6207
   31.200    0.7170
   31.335    0.8240
   31.470    1.4553
   31.605    0.7277
   31.740    0.6100
   31.875    0.6849
   32.010    0.6421
   32.145    0.9096
   32.280    0.6956
   32.415    0.6635
   32.550    1.1022
   32.685    0.7919
   32.820    1.3804
   32.955    0.7919
   33.090    0.9203
   33.225    1.3376
   33.360    0.5564
   33.495    0.5243
   33.630    0.5886
   33.765    0.7705
   33.900    0.7063
   34.035    0.5886
   34.170    1.1664
   34.305    0.6207
   34.440    0.5136
   34.575    0.6100
   34.710    0.6421
   34.845    0.6421
   34.980    0.5886
   35.115    0.8240
   35.250    0.5778
   35.385    0.7277
   35.520    0.4708
   35.655    0.7812
   35.790    0.6207
   35.925    0.5778
   36.060    0.4494
   36.195    0.4922
   36.330    0.4708
   36.465    0.4708
   36.600    0.8240
   36.735    0.6207
   36.870    0.5886
   37.005    0.6207
   37.140    0.6207
   37.275    0.6956
   37.410    0.7705
   37.545    0.9310
   37.680    0.4708
   37.815    0.4066
   37.950    0.4601
   38.085    0.4066
   38.220    0.4173
   38.355    0.6100
   38.490    0.5136
   38.625    0.5350
   38.760    0.5136
   38.895    0.3852
   39.030    0.4173
   39.165    0.4601
   39.300    0.4494
   39.435    0.5457
   39.570    0.7705
   39.705    0.5671
   39.840    0.5671
   39.975    0.3424
   39.990    0.4815