File: data/PXRD/PXRD_KE-149_Cu-Ka1_capillary-1mm_5s-deg.xyd
    1.500   14.9447
    1.635   14.0600
    1.770   13.3544
    1.905   12.3644
    2.040   11.8589
    2.175   11.9431
    2.310   11.0058
    2.445   11.2691
    2.580   11.6904
    2.715   11.4692
    2.850   12.4592
    2.985   13.4071
    3.120   14.6498
    3.255   16.7457
    3.390   20.0843
    3.525   24.5287
    3.660   30.9005
    3.795   48.2991
    3.930   44.8236
    4.065   13.2912
    4.200   10.5108
    4.335    9.5103
    4.470    8.6888
    4.605    8.8257
    4.740    8.3518
    4.875    8.6888
    5.010    8.8889
    5.145    9.4681
    5.280   10.0369
    5.415   12.9331
    5.550   13.2280
    5.685    8.1095
    5.820    8.1306
    5.955    8.3307
    6.090    7.9726
    6.225    7.6883
    6.360    7.5724
    6.495    7.6040
    6.630    8.0358
    6.765    8.7625
    6.900    8.2254
    7.035    7.9831
    7.170    7.8357
    7.305    8.3096
    7.440    8.0358
    7.575    8.7730
    7.710    9.0469
    7.845    9.9526
    7.980    8.4044
    8.115    8.2780
    8.250    8.6572
    8.385    8.5624
    8.520    8.3202
    8.655    8.7625
    8.790    8.4676
    8.925    8.4255
    9.060    9.0785
    9.195    8.6572
    9.330    9.2048
    9.465   10.6898
    9.600   12.6277
    9.735    9.0679
    9.870    8.8362
   10.005    8.8257
   10.140    9.1732
   10.275    9.6893
   10.410    8.9100
   10.545    8.7836
   10.680    9.2259
   10.815    9.0258
   10.950    9.1101
   11.085    9.6472
   11.220    8.6467
   11.355    8.0042
   11.490    8.5308
   11.625    8.5940
   11.760    9.0153
   11.895    7.7830
   12.030    8.0358
   12.165    7.6145
   12.300    8.0042
   12.435    7.6461
   12.570    7.9726
   12.705    7.4776
   12.840    7.7199
   12.975    8.5097
   13.110    7.7093
   13.245    7.1195
   13.380    7.4144
   13.515    7.3828
   13.650    7.2670
   13.785    7.0248
   13.920    7.6040
   14.055    7.8252
   14.190    7.8041
   14.325    7.5619
   14.460    7.2249
   14.595    7.7620
   14.730    7.4776
   14.865    7.0669
   15.000    7.5408
   15.135    7.2775
   15.270    7.3618
   15.405    6.9510
   15.540    7.2459
   15.675    7.2565
   15.810    7.4355
   15.945    7.2670
   16.080    7.6461
   16.215    7.8462
   16.350    7.7620
   16.485    7.8462
   16.620    7.3723
   16.755    7.4460
   16.890    7.2986
   17.025    7.5092
   17.160    7.9937
   17.295    7.1195
   17.430    7.3091
   17.565    7.1195
   17.700    6.9826
   17.835    6.8984
   17.970    7.5513
   18.105    7.6145
   18.240    7.2880
   18.375    7.1301
   18.510    7.4776
   18.645    7.2670
   18.780    7.5724
   18.915    7.5829
   19.050    7.3618
   19.185    7.7830
   19.320    7.5303
   19.455    7.8146
   19.590    7.8884
   19.725    7.5829
   19.860    7.8568
   19.995    7.8673
   20.130    8.0779
   20.265    8.3096
   20.400    8.3096
   20.535    7.7199
   20.670    7.7304
   20.805    7.9305
   20.940    7.8884
   21.075    7.5619
   21.210    7.9726
   21.345    7.9200
   21.480    8.2464
   21.615    8.0674
   21.750    7.6777
   21.885    8.2780
   22.020    7.9831
   22.155    8.3623
   22.290    7.8357
   22.425    7.6251
   22.560    8.1833
   22.695    8.4571
   22.830    8.3518
   22.965    9.0574
   23.100    8.1727
   23.235    8.2570
   23.370    7.7620
   23.505    8.6361
   23.640    7.7514
   23.775    7.4355
   23.910    7.9410
   24.045    7.8673
   24.180    7.6461
   24.315    8.0779
   24.450    7.7514
   24.585    7.9726
   24.720    7.4671
   24.855    7.8252
   24.990    7.4460
   25.125    7.6356
   25.260    7.4882
   25.395    7.6988
   25.530    7.5724
   25.665    7.6145
   25.800    7.9937
   25.935    8.2149
   26.070    7.4776
   26.205    7.0458
   26.340    7.5092
   26.475    7.2459
   26.610    7.0879
   26.745    7.3302
   26.880    7.1511
   27.015    7.7620
   27.150    7.6672
   27.285    7.4776
   27.420    7.4250
   27.555    7.2670
   27.690    7.4355
   27.825    6.7720
   27.960    7.2880
   28.095    7.1511
   28.230    7.5303
   28.365    7.6356
   28.500    7.2986
   28.635    6.7404
   28.770    7.2038
   28.905    7.4671
   29.040    7.3723
   29.175    6.8141
   29.310    6.8457
   29.445    6.8773
   29.580    7.0037
   29.715    6.7404
   29.850    6.8773
   29.985    6.5192
   30.120    6.8562
   30.255    6.9089
   30.390    6.3191
   30.525    6.5719
   30.660    6.4034
   30.795    6.4139
   30.930    6.6140
   31.065    6.4771
   31.200    6.0453
   31.335    6.6035
   31.470    6.2349
   31.605    6.8773
   31.740    6.4876
   31.875    6.9405
   32.010    6.7193
   32.145    7.0142
   32.280    6.4244
   32.415    6.2033
   32.550    6.5719
   32.685    6.0979
   32.820    6.1822
   32.955    6.2243
   33.090    6.5613
   33.225    6.3086
   33.360    5.8452
   33.495    6.4771
   33.630    6.4666
   33.765    6.4034
   33.900    5.8873
   34.035    6.3296
   34.170    6.2138
   34.305    6.2454
   34.440    5.8452
   34.575    5.7504
   34.710    5.6767
   34.845    5.6345
   34.980    5.8136
   35.115    5.6451
   35.250    5.8768
   35.385    6.1611
   35.520    6.0558
   35.655    5.5714
   35.790    5.9084
   35.925    5.9926
   36.060    5.8031
   36.195    6.0664
   36.330    5.5503
   36.465    5.7820
   36.600    5.7399
   36.735    5.8241
   36.870    5.5503
   37.005    5.6029
   37.140    5.8768
   37.275    5.3397
   37.410    5.7715
   37.545    5.8662
   37.680    6.0137
   37.815    5.8978
   37.950    5.8873
   38.085    5.8031
   38.220    5.6556
   38.355    5.6556
   38.490    5.6029
   38.625    5.5398
   38.760    5.4871
   38.895    5.9505
   39.030    5.9294
   39.165    5.5082
   39.300    5.5819
   39.435    5.8347
   39.570    5.6135
   39.705    5.4028
   39.840    5.4134
   39.975    5.5398
   39.990    5.5398