File: data/PXRD/PXRD_KE-285B_Cu-Ka1_capillary-1mm_3s-deg.xyd
    1.500   64.1917
    1.635   53.1157
    1.770   45.8838
    1.905   38.8450
    2.040   35.3344
    2.175   29.6296
    2.310   26.5578
    2.445   24.2759
    2.580   21.6956
    2.715   21.4323
    2.850   21.3972
    2.985   21.0286
    3.120   22.0818
    3.255   24.8201
    3.390   29.8929
    3.525   37.2828
    3.660   53.4316
    3.795  105.8101
    3.930   42.9524
    4.065   17.0792
    4.200   14.6568
    4.335   12.8840
    4.470   12.9717
    4.605   13.4457
    4.740   12.7787
    4.875   13.6563
    5.010   14.6568
    5.145   17.5531
    5.280   21.7132
    5.415   38.9679
    5.550   22.6259
    5.685   11.4973
    5.820   12.1994
    5.955   11.5148
    6.090   10.8829
    6.225   11.1111
    6.360   12.5680
    6.495   13.7967
    6.630   18.2552
    6.765   21.5377
    6.900   11.0409
    7.035   11.0233
    7.170   10.7600
    7.305   11.1462
    7.440   11.3920
    7.575   11.3569
    7.710   14.3760
    7.845   12.8664
    7.980   10.8303
    8.115   11.6202
    8.250   10.8127
    8.385   10.9180
    8.520   11.0409
    8.655   10.8303
    8.790   11.2691
    8.925   11.0409
    9.060   11.3217
    9.195   11.6904
    9.330   12.1467
    9.465   17.5180
    9.600   17.6584
    9.735   11.2866
    9.870   11.3569
   10.005   11.3920
   10.140   12.7260
   10.275   14.7446
   10.410   11.1989
   10.545   11.7079
   10.680   10.8478
   10.815   10.9882
   10.950   12.2170
   11.085   12.6382
   11.220   10.4968
   11.355   10.5670
   11.490   10.9531
   11.625   13.0771
   11.760   13.5685
   11.895   10.1632
   12.030    9.3734
   12.165    9.4787
   12.300   10.9707
   12.435    9.8999
   12.570    9.8473
   12.705   10.0053
   12.840   10.0930
   12.975   12.1116
   13.110    9.9526
   13.245    9.8999
   13.380    9.1276
   13.515   10.7600
   13.650    9.7946
   13.785    9.3558
   13.920    9.9526
   14.055   11.3744
   14.190   10.4792
   14.325    9.9877
   14.460    9.2856
   14.595    8.7941
   14.730    9.3031
   14.865    9.5664
   15.000    9.2505
   15.135    9.7420
   15.270    9.6191
   15.405    8.7590
   15.540    8.5308
   15.675    9.3558
   15.810    9.4085
   15.945    9.4436
   16.080    9.4260
   16.215    9.7595
   16.350    9.3734
   16.485    9.6191
   16.620   10.0228
   16.755   10.4616
   16.890    9.3558
   17.025   11.6728
   17.160   10.9882
   17.295   10.0579
   17.430    9.9175
   17.565   10.1281
   17.700    9.7244
   17.835   10.1281
   17.970    9.9702
   18.105    9.9877
   18.240    9.6015
   18.375   10.4265
   18.510    9.9526
   18.645    9.1627
   18.780    9.8297
   18.915   10.6021
   19.050    9.8122
   19.185   10.2510
   19.320   10.1808
   19.455   10.5143
   19.590   10.6898
   19.725    9.6015
   19.860   10.3914
   19.995   10.0930
   20.130    9.8824
   20.265   10.4968
   20.400   10.9707
   20.535   10.4968
   20.670   10.6372
   20.805   10.9882
   20.940   12.7611
   21.075   16.9738
   21.210   22.1345
   21.345   26.8738
   21.480   23.0823
   21.615   12.9893
   21.750   10.9005
   21.885   11.5850
   22.020   10.6898
   22.155   10.4792
   22.290   10.0755
   22.425   10.2335
   22.560   11.4973
   22.695   10.7249
   22.830   10.4090
   22.965   10.7952
   23.100   10.0930
   23.235   10.0579
   23.370   11.3920
   23.505   11.9888
   23.640   13.4106
   23.775   14.6919
   23.910   12.7962
   24.045    9.4260
   24.180    9.3909
   24.315    9.8297
   24.450    9.4085
   24.585    9.1978
   24.720    9.6542
   24.855    9.1276
   24.990    8.7941
   25.125    8.3904
   25.260    9.3382
   25.395    9.2680
   25.530    9.2856
   25.665    9.6893
   25.800    9.4962
   25.935    9.1101
   26.070    9.6191
   26.205    9.0398
   26.340    9.0750
   26.475    9.3031
   26.610    8.8468
   26.745    8.3904
   26.880    8.1797
   27.015    9.3031
   27.150    8.1271
   27.285    9.4085
   27.420    8.6712
   27.555    8.7941
   27.690    8.3553
   27.825    8.4781
   27.960    8.1095
   28.095    8.8819
   28.230    8.4079
   28.365    8.8994
   28.500    8.7590
   28.635    8.1095
   28.770    8.3553
   28.905    7.8111
   29.040    8.0393
   29.175    8.0393
   29.310    8.5659
   29.445    7.8638
   29.580    8.4957
   29.715    8.2851
   29.850    8.6712
   29.985    8.2149
   30.120    8.5835
   30.255    8.0744
   30.390    8.0042
   30.525    7.7234
   30.660    7.7760
   30.795    7.9516
   30.930    7.6005
   31.065    7.8989
   31.200    8.6361
   31.335    8.0042
   31.470    8.0218
   31.605    7.8638
   31.740    7.7936
   31.875    7.8989
   32.010    8.0218
   32.145    7.8813
   32.280    7.6180
   32.415    7.7058
   32.550    7.1792
   32.685    7.0563
   32.820    7.5829
   32.955    7.8813
   33.090    7.3372
   33.225    7.4425
   33.360    7.6005
   33.495    7.5654
   33.630    7.3899
   33.765    7.6883
   33.900    7.8638
   34.035    7.5478
   34.170    7.0388
   34.305    7.3021
   34.440    7.1792
   34.575    7.4601
   34.710    7.2494
   34.845    7.7760
   34.980    6.7579
   35.115    7.2670
   35.250    7.6883
   35.385    7.5654
   35.520    7.0915
   35.655    7.0915
   35.790    7.6005
   35.925    8.0218
   36.060    7.9867
   36.195    7.6532
   36.330    7.4074
   36.465    7.3196
   36.600    7.2143
   36.735    7.0915
   36.870    6.4069
   37.005    6.7579
   37.140    6.9335
   37.275    6.6877
   37.410    6.6175
   37.545    6.9335
   37.680    7.3021
   37.815    7.2670
   37.950    7.3723
   38.085    7.0037
   38.220    7.3196
   38.355    7.0739
   38.490    6.8282
   38.625    6.9510
   38.760    6.9686
   38.895    7.0037
   39.030    6.8106
   39.165    6.1436
   39.300    7.3196
   39.435    7.1441
   39.570    7.1090
   39.705    7.3372
   39.840    7.3723
   39.975    7.1441
   39.990    6.8808