File: data/PXRD/PXRD_KE-224_Co-Ka1_film-3mm_5s-deg.xyd
    1.500    4.9973
    1.635    4.3981
    1.770    3.6597
    1.905    3.4992
    2.040    3.0819
    2.175    2.6752
    2.310    2.3542
    2.445    2.3114
    2.580    2.2151
    2.715    2.1081
    2.850    1.9262
    2.985    1.8620
    3.120    2.3649
    3.255    1.5730
    3.390    1.5730
    3.525    1.7121
    3.660    1.6265
    3.795    1.9369
    3.930    1.9583
    4.065    1.8620
    4.200    1.8727
    4.335    1.8941
    4.470    1.8620
    4.605    1.6800
    4.740    1.8620
    4.875    1.5730
    5.010    1.7978
    5.145    1.7442
    5.280    1.7335
    5.415    1.6693
    5.550    1.6907
    5.685    1.6158
    5.820    1.6051
    5.955    1.6372
    6.090    1.5302
    6.225    2.0225
    6.360    2.0118
    6.495    2.1188
    6.630    1.9476
    6.765    1.9690
    6.900    1.4767
    7.035    1.4018
    7.170    1.3697
    7.305    1.5516
    7.440    1.4660
    7.575    1.3911
    7.710    1.3804
    7.845    1.4018
    7.980    1.3269
    8.115    1.3697
    8.250    1.2520
    8.385    1.1985
    8.520    1.2948
    8.655    1.0701
    8.790    1.1878
    8.925    1.2306
    9.060    1.2413
    9.195    1.1878
    9.330    1.0380
    9.465    1.1236
    9.600    1.0808
    9.735    0.9417
    9.870    1.0059
   10.005    0.9952
   10.140    0.9524
   10.275    0.9738
   10.410    1.1985
   10.545    0.9631
   10.680    0.8882
   10.815    0.9096
   10.950    0.8882
   11.085    1.0701
   11.220    1.1664
   11.355    0.9952
   11.490    0.9524
   11.625    0.8882
   11.760    1.0059
   11.895    0.7919
   12.030    0.9738
   12.165    0.9524
   12.300    0.9417
   12.435    0.9417
   12.570    1.0059
   12.705    0.9524
   12.840    1.0166
   12.975    1.0273
   13.110    0.8775
   13.245    1.0380
   13.380    0.9631
   13.515    1.0166
   13.650    1.0166
   13.785    0.9738
   13.920    1.0380
   14.055    1.1129
   14.190    1.0059
   14.325    0.8026
   14.460    0.9524
   14.595    0.8561
   14.730    0.9310
   14.865    0.9845
   15.000    0.8240
   15.135    0.8026
   15.270    0.9096
   15.405    0.8882
   15.540    0.8454
   15.675    0.8347
   15.810    0.7598
   15.945    1.0808
   16.080    0.8882
   16.215    0.9631
   16.350    0.8240
   16.485    0.7598
   16.620    0.9952
   16.755    1.0915
   16.890    0.8882
   17.025    1.1557
   17.160    1.0701
   17.295    0.9203
   17.430    0.9203
   17.565    0.8133
   17.700    0.8454
   17.835    0.9096
   17.970    0.8240
   18.105    0.7705
   18.240    0.8989
   18.375    0.8026
   18.510    0.7491
   18.645    0.8454
   18.780    0.9524
   18.915    0.8133
   19.050    0.9952
   19.185    0.8240
   19.320    0.8026
   19.455    0.8026
   19.590    0.7277
   19.725    0.9203
   19.860    0.6742
   19.995    0.8240
   20.130    0.8561
   20.265    0.9203
   20.400    0.9096
   20.535    0.9203
   20.670    0.9738
   20.805    0.7277
   20.940    0.8882
   21.075    0.7491
   21.210    0.8454
   21.345    0.7598
   21.480    0.6849
   21.615    0.6100
   21.750    0.8882
   21.885    0.9096
   22.020    0.7384
   22.155    0.8133
   22.290    0.8240
   22.425    0.7170
   22.560    0.7277
   22.695    0.8240
   22.830    0.7919
   22.965    0.7812
   23.100    0.7063
   23.235    0.8668
   23.370    0.7063
   23.505    0.8240
   23.640    0.8240
   23.775    0.8347
   23.910    0.7812
   24.045    0.6742
   24.180    0.8026
   24.315    0.8133
   24.450    0.9203
   24.585    0.8561
   24.720    0.7170
   24.855    0.6956
   24.990    0.7705
   25.125    0.7384
   25.260    0.7491
   25.395    0.6635
   25.530    0.7384
   25.665    0.7491
   25.800    0.7491
   25.935    0.8561
   26.070    0.8240
   26.205    0.5886
   26.340    0.7277
   26.475    0.8240
   26.610    0.7598
   26.745    0.6742
   26.880    0.7063
   27.015    0.5886
   27.150    0.5778
   27.285    0.6849
   27.420    0.7277
   27.555    0.6635
   27.690    0.5778
   27.825    0.6956
   27.960    0.5243
   28.095    0.6421
   28.230    0.5886
   28.365    0.5671
   28.500    0.6849
   28.635    0.6100
   28.770    0.5350
   28.905    0.7063
   29.040    0.5778
   29.175    0.7170
   29.310    0.5993
   29.445    0.6635
   29.580    0.5350
   29.715    0.5671
   29.850    0.4815
   29.985    0.5993
   30.120    0.5778
   30.255    0.5350
   30.390    0.4708
   30.525    0.4708
   30.660    0.4494
   30.795    0.5778
   30.930    0.5136
   31.065    0.4173
   31.200    0.5564
   31.335    0.5671
   31.470    0.5457
   31.605    0.5886
   31.740    0.4173
   31.875    0.6100
   32.010    0.5457
   32.145    0.5671
   32.280    0.6314
   32.415    0.4922
   32.550    0.4494
   32.685    0.3852
   32.820    0.4922
   32.955    0.4922
   33.090    0.4708
   33.225    0.4815
   33.360    0.5136
   33.495    0.5029
   33.630    0.5243
   33.765    0.4280
   33.900    0.3531
   34.035    0.5136
   34.170    0.4387
   34.305    0.4387
   34.440    0.4173
   34.575    0.4280
   34.710    0.3852
   34.845    0.4173
   34.980    0.3745
   35.115    0.4601
   35.250    0.3638
   35.385    0.4494
   35.520    0.3745
   35.655    0.3531
   35.790    0.4066
   35.925    0.4066
   36.060    0.3103
   36.195    0.3210
   36.330    0.3103
   36.465    0.4280
   36.600    0.3317
   36.735    0.2782
   36.870    0.3317
   37.005    0.2996
   37.140    0.3317
   37.275    0.3103
   37.410    0.4280
   37.545    0.3959
   37.680    0.3210
   37.815    0.3317
   37.950    0.3424
   38.085    0.2996
   38.220    0.3745
   38.355    0.3103
   38.490    0.3531
   38.625    0.2889
   38.760    0.2782
   38.895    0.3103
   39.030    0.3424
   39.165    0.2782
   39.300    0.3210
   39.435    0.2568
   39.570    0.2568
   39.705    0.2889
   39.840    0.3317
   39.975    0.3210
   39.990    0.2889