File: data/PXRD/PXRD_KE-188_Cu-Ka1_capillary-1mm_5s-deg.xyd
    1.500   21.7483
    1.635   17.6093
    1.770   14.7867
    1.905   12.1854
    2.040   10.3423
    2.175    8.6993
    2.310    7.7093
    2.445    6.8352
    2.580    6.0769
    2.715    5.8557
    2.850    5.1711
    2.985    5.1817
    3.120    4.8025
    3.255    5.0658
    3.390    4.4550
    3.525    4.6867
    3.660    5.4239
    3.795    7.8252
    3.930    8.4571
    4.065    3.7493
    4.200    3.6651
    4.335    3.8125
    4.470    3.5492
    4.605    3.4544
    4.740    3.4229
    4.875    3.6967
    5.010    3.4334
    5.145    3.4334
    5.280    3.5387
    5.415    4.3707
    5.550    4.9605
    5.685    3.2859
    5.820    3.4229
    5.955    3.4229
    6.090    3.0964
    6.225    3.2017
    6.360    3.0648
    6.495    3.2543
    6.630    3.4966
    6.765    3.8968
    6.900    3.2333
    7.035    3.0964
    7.170    3.5071
    7.305    3.3386
    7.440    3.1912
    7.575    3.1490
    7.710    3.4544
    7.845    3.7072
    7.980    3.4544
    8.115    3.1174
    8.250    2.9910
    8.385    3.3913
    8.520    3.2965
    8.655    3.3491
    8.790    3.3702
    8.925    3.0858
    9.060    3.1912
    9.195    3.1280
    9.330    3.0226
    9.465    3.6124
    9.600    4.1285
    9.735    3.0753
    9.870    3.2227
   10.005    3.2122
   10.140    3.1912
   10.275    3.4544
   10.410    3.1596
   10.545    3.0226
   10.680    3.1701
   10.815    3.1701
   10.950    3.2333
   11.085    3.3913
   11.220    3.1701
   11.355    2.9279
   11.490    2.8436
   11.625    3.2754
   11.760    3.2965
   11.895    2.9700
   12.030    3.0332
   12.165    3.1280
   12.300    2.9805
   12.435    2.9700
   12.570    3.0542
   12.705    2.9279
   12.840    2.8225
   12.975    3.0226
   13.110    2.9489
   13.245    3.0542
   13.380    2.8436
   13.515    3.0016
   13.650    2.6751
   13.785    3.0226
   13.920    2.6646
   14.055    2.8752
   14.190    2.7383
   14.325    2.7278
   14.460    2.7278
   14.595    2.8331
   14.730    3.0332
   14.865    2.8225
   15.000    2.8331
   15.135    2.7804
   15.270    3.0858
   15.405    3.0753
   15.540    2.9700
   15.675    3.2333
   15.810    2.9384
   15.945    3.0226
   16.080    2.9910
   16.215    3.1280
   16.350    2.9700
   16.485    3.0437
   16.620    3.0437
   16.755    2.9805
   16.890    2.8331
   17.025    2.8436
   17.160    2.9068
   17.295    2.8331
   17.430    2.7383
   17.565    3.2649
   17.700    3.2017
   17.835    2.9700
   17.970    3.0542
   18.105    2.7699
   18.240    2.7909
   18.375    2.7699
   18.510    2.9384
   18.645    3.1912
   18.780    2.8963
   18.915    3.1280
   19.050    3.8231
   19.185    3.0016
   19.320    2.7488
   19.455    2.7699
   19.590    3.0226
   19.725    2.8647
   19.860    3.0016
   19.995    2.7804
   20.130    2.9805
   20.265    3.0964
   20.400    3.2543
   20.535    2.8436
   20.670    3.0226
   20.805    2.8015
   20.940    2.8225
   21.075    3.1069
   21.210    2.8225
   21.345    2.9805
   21.480    2.9805
   21.615    3.0648
   21.750    2.9805
   21.885    2.7804
   22.020    2.9910
   22.155    3.2754
   22.290    2.9700
   22.425    2.8752
   22.560    3.3386
   22.695    2.8752
   22.830    2.8541
   22.965    2.6856
   23.100    3.0121
   23.235    3.2017
   23.370    2.8120
   23.505    2.9805
   23.640    2.8647
   23.775    3.1280
   23.910    2.7909
   24.045    3.2227
   24.180    2.9910
   24.315    2.9279
   24.450    2.9700
   24.585    3.1069
   24.720    2.8225
   24.855    3.0332
   24.990    2.8225
   25.125    2.8225
   25.260    3.0226
   25.395    2.8436
   25.530    2.8120
   25.665    2.9595
   25.800    3.0332
   25.935    2.9068
   26.070    2.6119
   26.205    2.9805
   26.340    2.7909
   26.475    2.6119
   26.610    2.9489
   26.745    2.5803
   26.880    2.6962
   27.015    2.6646
   27.150    2.8752
   27.285    2.7804
   27.420    2.6646
   27.555    2.6119
   27.690    2.6856
   27.825    2.7383
   27.960    3.2754
   28.095    3.0437
   28.230    2.7593
   28.365    2.7383
   28.500    2.6540
   28.635    2.8120
   28.770    2.7172
   28.905    2.7804
   29.040    3.4229
   29.175    2.5487
   29.310    2.6751
   29.445    2.6856
   29.580    2.4855
   29.715    2.4223
   29.850    2.8225
   29.985    2.7278
   30.120    2.5908
   30.255    2.7593
   30.390    2.6856
   30.525    2.6540
   30.660    2.6119
   30.795    2.5487
   30.930    2.8015
   31.065    2.7278
   31.200    2.5908
   31.335    2.5908
   31.470    2.5066
   31.605    2.4434
   31.740    2.9700
   31.875    2.9595
   32.010    2.9595
   32.145    3.9389
   32.280    2.5487
   32.415    2.3591
   32.550    2.4645
   32.685    2.2328
   32.820    2.3697
   32.955    2.2538
   33.090    2.5171
   33.225    2.4539
   33.360    2.3907
   33.495    2.2538
   33.630    2.0537
   33.765    2.6014
   33.900    2.8963
   34.035    2.4961
   34.170    2.2538
   34.305    2.5382
   34.440    2.0326
   34.575    2.3802
   34.710    2.2012
   34.845    2.2854
   34.980    2.1801
   35.115    2.1485
   35.250    2.1906
   35.385    2.2222
   35.520    2.1169
   35.655    2.0432
   35.790    2.3486
   35.925    2.2959
   36.060    2.1380
   36.195    2.2959
   36.330    2.0642
   36.465    2.3065
   36.600    2.2222
   36.735    2.0748
   36.870    2.0221
   37.005    2.2222
   37.140    2.2117
   37.275    1.9695
   37.410    1.9695
   37.545    2.1274
   37.680    2.0748
   37.815    2.4223
   37.950    1.8957
   38.085    1.9800
   38.220    2.0748
   38.355    2.2854
   38.490    2.2328
   38.625    2.3065
   38.760    2.3065
   38.895    2.2749
   39.030    2.1801
   39.165    2.1169
   39.300    2.3486
   39.435    2.4750
   39.570    2.3170
   39.705    2.0432
   39.840    2.1064
   39.975    2.0853
   39.990    1.8325