File: data/PXRD/PXRD_KE-326_Cu-Ka1_capillary-1mm_3s-deg_MOCOF-1.xyd
    1.500   10.3739
    1.665    9.8824
    1.830    9.5664
    1.995    9.5664
    2.160    9.7069
    2.325   10.0579
    2.490   10.8654
    2.655   11.8483
    2.820   13.3404
    2.985   16.6228
    3.150   22.8892
    3.315   30.7706
    3.480   41.8290
    3.645   72.3363
    3.810  191.6447
    3.975    9.6367
    4.140    6.1962
    4.305    5.4941
    4.470    6.7228
    4.635    7.0915
    4.800    7.1792
    4.965    7.5829
    5.130   10.8654
    5.295   16.5701
    5.460   45.2694
    5.625    4.8622
    5.790    4.5989
    5.955    4.6340
    6.120    5.1606
    6.285    4.6691
    6.450    5.6170
    6.615    7.9867
    6.780    6.4069
    6.945    4.4585
    7.110    4.6340
    7.275    4.4058
    7.440    5.4239
    7.605    7.2670
    7.770   14.9903
    7.935    3.8090
    8.100    4.4058
    8.265    4.8271
    8.430    3.9143
    8.595    4.3356
    8.760    4.0723
    8.925    3.7739
    9.090    4.3005
    9.255    5.7048
    9.420   10.7952
    9.585   11.9712
    9.750    4.2127
    9.915    3.8792
   10.080    4.6340
   10.245    7.3723
   10.410    3.5457
   10.575    3.4580
   10.740    4.1776
   10.905    5.6170
   11.070    6.7053
   11.235    3.7213
   11.400    4.2478
   11.565    5.3537
   11.730    8.4079
   11.895    3.6510
   12.060    3.5633
   12.225    3.9494
   12.390    4.2303
   12.555    3.8090
   12.720    4.1250
   12.885    5.9856
   13.050    3.8441
   13.215    3.8792
   13.380    4.0723
   13.545    5.4941
   13.710    3.7213
   13.875    3.9319
   14.040    6.2489
   14.205    3.7037
   14.370    3.3877
   14.535    2.9840
   14.700    3.3877
   14.865    3.3000
   15.030    3.6159
   15.195    4.3883
   15.360    3.1596
   15.525    3.0718
   15.690    3.0016
   15.855    3.4580
   16.020    3.7213
   16.185    3.6686
   16.350    3.5633
   16.515    3.5984
   16.680    3.7388
   16.845    3.8617
   17.010    5.7223
   17.175    3.7915
   17.340    3.0893
   17.505    3.9319
   17.670    3.4580
   17.835    3.1420
   18.000    3.9846
   18.165    3.4404
   18.330    4.0197
   18.495    3.1420
   18.660    3.2298
   18.825    3.6335
   18.990    3.2473
   19.155    3.4755
   19.320    3.4229
   19.485    3.7388
   19.650    4.0899
   19.815    3.3351
   19.980    3.2473
   20.145    3.5808
   20.310    5.1080
   20.475    4.0197
   20.640    3.0367
   20.805    3.3000
   20.970    3.5106
   21.135    3.6159
   21.300    3.5633
   21.465    3.5633
   21.630    3.0893
   21.795    4.4760
   21.960    3.5808
   22.125    3.4580
   22.290    3.8968
   22.455    4.5638
   22.620    5.3712
   22.785    4.4058
   22.950    5.6521
   23.115    4.1425
   23.280    4.0197
   23.445    3.3526
   23.610    3.3351
   23.775    3.5984
   23.940    4.4760
   24.105    3.2649
   24.270    3.4931
   24.435    3.5282
   24.600    3.4755
   24.765    3.6335
   24.930    3.3526
   25.095    3.6335
   25.260    3.4404
   25.425    3.4404
   25.590    3.4580
   25.755    4.5989
   25.920    4.1425
   26.085    3.2473
   26.250    3.3351
   26.415    3.4229
   26.580    3.1947
   26.745    3.3702
   26.910    3.4404
   27.075    3.8617
   27.240    3.2298
   27.405    3.5633
   27.570    4.1776
   27.735    3.7037
   27.900    3.7388
   28.065    3.6510
   28.230    4.0899
   28.395    3.9143
   28.560    3.5984
   28.725    3.2122
   28.890    3.2649
   29.055    3.5984
   29.220    3.8266
   29.385    3.1771
   29.550    3.1245
   29.715    3.2298
   29.880    3.5984
   30.045    3.4053
   30.210    3.3877
   30.375    3.7388
   30.540    3.4053
   30.705    3.5633
   30.870    3.0718
   31.035    3.2473
   31.200    3.0718
   31.365    3.1420
   31.530    3.2649
   31.695    2.8612
   31.860    3.0191
   32.025    3.2122
   32.190    3.1771
   32.355    3.0718
   32.520    2.7734
   32.685    3.1947
   32.850    3.0191
   33.015    3.0016
   33.180    2.8612
   33.345    3.1420
   33.510    2.8085
   33.675    3.2298
   33.840    3.5984
   34.005    2.7032
   34.170    3.3000
   34.335    3.0718
   34.500    2.6681
   34.665    2.7383
   34.830    3.0367
   34.995    3.0191
   35.160    2.7207
   35.325    2.8260
   35.490    2.9138
   35.655    2.5628
   35.820    3.0542
   35.985    3.0191
   36.150    2.8963
   36.315    2.7207
   36.480    2.5628
   36.645    2.8436
   36.810    2.7032
   36.975    2.3697
   37.140    2.6505
   37.305    2.2292
   37.470    2.5101
   37.635    3.1420
   37.800    2.3170
   37.965    3.0016
   38.130    2.4750
   38.295    2.7909
   38.460    2.4925
   38.625    2.7383
   38.790    2.5452
   38.955    2.6330
   39.120    2.3521
   39.285    2.8612
   39.450    2.8260
   39.615    2.6681
   39.780    2.6681
   39.945    2.6505
   40.110    2.3697
   40.275    2.7383
   40.440    3.0016
   40.605    2.8963
   40.770    2.5276
   40.935    2.4048
   41.100    2.5276
   41.265    2.9138
   41.430    2.6681
   41.595    2.7032
   41.760    2.4574
   41.925    2.5276
   42.090    3.0367
   42.255    2.8787
   42.420    2.5803
   42.585    2.5628
   42.750    2.8085
   42.915    2.5979
   43.080    2.9314
   43.245    2.5276
   43.410    2.4574
   43.575    2.3697
   43.740    2.5803
   43.905    2.5452
   44.070    2.9138
   44.235    2.6681
   44.400    2.7032
   44.565    2.3346
   44.730    2.5276
   44.895    2.5101
   45.060    2.5276
   45.225    2.7734
   45.390    2.1064
   45.555    2.4750
   45.720    2.4223
   45.885    2.5979
   46.050    2.6154
   46.215    2.7032
   46.380    2.5803
   46.545    2.6330
   46.710    2.5276
   46.875    2.7383
   47.040    2.4574
   47.205    2.6154
   47.370    2.4574
   47.535    2.1941
   47.700    2.2643
   47.865    2.3170
   48.030    2.2468
   48.195    2.2117
   48.360    2.2643
   48.525    2.6330
   48.690    2.8963
   48.855    2.3346
   49.020    2.5276
   49.185    2.3697
   49.350    2.4925
   49.515    2.4048
   49.680    2.2995
   49.845    2.1766
   49.980    2.6856