File: data/PXRD/PXRD_KE-242-2_Co-Ka1_capillary-1mm_5s-deg.xyd
    1.500    4.7512
    1.635    3.7453
    1.770    3.3387
    1.905    2.7073
    2.040    2.5468
    2.175    2.0653
    2.310    1.9583
    2.445    1.8406
    2.580    1.5944
    2.715    1.3055
    2.850    1.0915
    2.985    1.4874
    3.120    1.0915
    3.255    1.2627
    3.390    1.1664
    3.525    0.9952
    3.660    1.4339
    3.795    1.1236
    3.930    2.0867
    4.065    3.7239
    4.200    6.6453
    4.335   14.3713
    4.470   42.0546
    4.605    3.3708
    4.740    0.9203
    4.875    0.9845
    5.010    0.7170
    5.145    0.5993
    5.280    0.6849
    5.415    0.6421
    5.550    0.7812
    5.685    0.6528
    5.820    0.6314
    5.955    0.7705
    6.090    1.0380
    6.225    1.6158
    6.360    5.3719
    6.495    1.1771
    6.630    0.4815
    6.765    0.6421
    6.900    0.6314
    7.035    0.5564
    7.170    0.6528
    7.305    0.4708
    7.440    0.5886
    7.575    0.5993
    7.710    0.5886
    7.845    1.1985
    7.980    0.5564
    8.115    0.5350
    8.250    0.5350
    8.385    0.5457
    8.520    0.6207
    8.655    0.4708
    8.790    0.6100
    8.925    0.6956
    9.060    2.9749
    9.195    0.5564
    9.330    0.5457
    9.465    0.5136
    9.600    0.5029
    9.735    0.4708
    9.870    0.4815
   10.005    0.6100
   10.140    1.0915
   10.275    0.4815
   10.410    0.4494
   10.545    0.5029
   10.680    0.5778
   10.815    0.5243
   10.950    1.0380
   11.085    3.6704
   11.220    0.6635
   11.355    0.5457
   11.490    0.5993
   11.625    0.4173
   11.760    0.5564
   11.895    0.6314
   12.030    1.6693
   12.165    0.4494
   12.300    0.4494
   12.435    0.5671
   12.570    0.4922
   12.705    0.6742
   12.840    2.1188
   12.975    0.5029
   13.110    0.4280
   13.245    0.4922
   13.380    0.4708
   13.515    0.5671
   13.650    2.1295
   13.785    0.4494
   13.920    0.5029
   14.055    0.3852
   14.190    0.4922
   14.325    0.5886
   14.460    0.5350
   14.595    0.4708
   14.730    0.5136
   14.865    0.4280
   15.000    0.8133
   15.135    0.8347
   15.270    0.4922
   15.405    0.4280
   15.540    0.2568
   15.675    0.5457
   15.810    0.7170
   15.945    0.4601
   16.080    0.4173
   16.215    0.3745
   16.350    0.7705
   16.485    0.5993
   16.620    0.4815
   16.755    0.4708
   16.890    0.5136
   17.025    0.3531
   17.160    0.3745
   17.295    0.3852
   17.430    0.4601
   17.565    0.5886
   17.700    0.5243
   17.835    0.3959
   17.970    0.4815
   18.105    0.3638
   18.240    0.3210
   18.375    0.4494
   18.510    0.3531
   18.645    0.4708
   18.780    0.7063
   18.915    0.4280
   19.050    0.3638
   19.185    0.3959
   19.320    0.7812
   19.455    0.3745
   19.590    0.4066
   19.725    0.5029
   19.860    1.1664
   19.995    0.4601
   20.130    0.3959
   20.265    0.4601
   20.400    0.5350
   20.535    0.4066
   20.670    0.3745
   20.805    0.4494
   20.940    0.5778
   21.075    0.5136
   21.210    0.3959
   21.345    0.6207
   21.480    0.4173
   21.615    0.4922
   21.750    0.4815
   21.885    0.4387
   22.020    0.4066
   22.155    0.3424
   22.290    0.5136
   22.425    0.4601
   22.560    0.4066
   22.695    0.4815
   22.830    0.7705
   22.965    0.4708
   23.100    0.4173
   23.235    0.5671
   23.370    0.4922
   23.505    0.4280
   23.640    0.6100
   23.775    0.9845
   23.910    0.4708
   24.045    0.4494
   24.180    0.4280
   24.315    0.5671
   24.450    0.4708
   24.585    0.3745
   24.720    0.5243
   24.855    0.5243
   24.990    0.5243
   25.125    0.4387
   25.260    0.4601
   25.395    0.5778
   25.530    0.5564
   25.665    0.5457
   25.800    0.4387
   25.935    0.5993
   26.070    0.6207
   26.205    0.6635
   26.340    1.1450
   26.475    0.4387
   26.610    0.8026
   26.745    1.1878
   26.880    0.4708
   27.015    0.5243
   27.150    0.6421
   27.285    0.5564
   27.420    0.4922
   27.555    0.5029
   27.690    0.4922
   27.825    0.7277
   27.960    0.5243
   28.095    0.3959
   28.230    0.4387
   28.365    0.4066
   28.500    0.4066
   28.635    0.5993
   28.770    0.4280
   28.905    0.4815
   29.040    0.4708
   29.175    0.5029
   29.310    0.4708
   29.445    0.4708
   29.580    0.3745
   29.715    0.4922
   29.850    0.4601
   29.985    0.4280
   30.120    0.9310
   30.255    0.3745
   30.390    0.3317
   30.525    0.4387
   30.660    0.4173
   30.795    0.5993
   30.930    0.4708
   31.065    0.3531
   31.200    0.3745
   31.335    0.4494
   31.470    0.4280
   31.605    0.5671
   31.740    0.4173
   31.875    0.3317
   32.010    0.3424
   32.145    0.4922
   32.280    0.4066
   32.415    0.3959
   32.550    0.4922
   32.685    0.4387
   32.820    0.4601
   32.955    0.4815
   33.090    0.4280
   33.225    0.4494
   33.360    0.4066
   33.495    0.4066
   33.630    0.3103
   33.765    0.4280
   33.900    0.4387
   34.035    0.3745
   34.170    0.6635
   34.305    0.3745
   34.440    0.2568
   34.575    0.3210
   34.710    0.3959
   34.845    0.4708
   34.980    0.3210
   35.115    0.3745
   35.250    0.3638
   35.385    0.3103
   35.520    0.4387
   35.655    0.3317
   35.790    0.3852
   35.925    0.3638
   36.060    0.3531
   36.195    0.3852
   36.330    0.3424
   36.465    0.3210
   36.600    0.3959
   36.735    0.3852
   36.870    0.2889
   37.005    0.3317
   37.140    0.3745
   37.275    0.2782
   37.410    0.2461
   37.545    0.3103
   37.680    0.2782
   37.815    0.3424
   37.950    0.2568
   38.085    0.3638
   38.220    0.2568
   38.355    0.2996
   38.490    0.3103
   38.625    0.3103
   38.760    0.3103
   38.895    0.3103
   39.030    0.2782
   39.165    0.2461
   39.300    0.2568
   39.435    0.2675
   39.570    0.3317
   39.705    0.3638
   39.840    0.2568
   39.975    0.2675
   39.990    0.2461