File: data/PXRD/PXRD_KE-218_Co-Ka1_capillary-1mm_5s-deg.xyd
    1.500    5.2862
    1.635    4.8154
    1.770    4.1306
    1.905    3.7346
    2.040    3.1889
    2.175    3.2210
    2.310    2.7608
    2.445    2.8999
    2.580    2.3435
    2.715    2.7608
    2.850    2.1295
    2.985    2.4291
    3.120    2.6645
    3.255    2.4933
    3.390    2.8036
    3.525    3.1996
    3.660    4.0128
    3.795    4.7940
    3.930    6.9877
    4.065    9.1279
    4.200   12.7341
    4.335   21.0380
    4.470   50.1338
    4.605    6.4098
    4.740    1.8406
    4.875    1.9262
    5.010    1.4767
    5.145    1.2627
    5.280    1.2734
    5.415    1.1878
    5.550    1.2627
    5.685    1.1771
    5.820    1.3697
    5.955    1.6051
    6.090    2.2365
    6.225    3.2745
    6.360    8.0792
    6.495    1.5302
    6.630    0.9417
    6.765    1.0915
    6.900    1.1022
    7.035    1.0487
    7.170    0.8668
    7.305    0.9203
    7.440    0.8026
    7.575    0.8240
    7.710    1.0915
    7.845    1.4446
    7.980    0.8668
    8.115    0.9096
    8.250    0.8561
    8.385    0.8668
    8.520    0.7384
    8.655    0.8026
    8.790    1.1557
    8.925    1.7121
    9.060    4.0449
    9.195    0.7384
    9.330    0.8882
    9.465    0.8454
    9.600    0.7384
    9.735    0.8133
    9.870    0.8882
   10.005    0.9738
   10.140    1.3269
   10.275    0.6314
   10.410    0.8561
   10.545    0.7705
   10.680    0.7170
   10.815    0.8989
   10.950    1.2520
   11.085    4.3767
   11.220    1.1022
   11.355    0.7384
   11.490    0.7705
   11.625    0.8026
   11.760    0.8454
   11.895    1.1129
   12.030    2.4612
   12.165    0.7812
   12.300    0.7170
   12.435    0.5778
   12.570    0.7063
   12.705    1.0380
   12.840    1.9155
   12.975    0.6742
   13.110    0.7277
   13.245    0.7491
   13.380    0.6849
   13.515    1.0808
   13.650    2.3649
   13.785    0.6314
   13.920    0.6528
   14.055    0.6849
   14.190    0.6421
   14.325    1.0273
   14.460    0.7277
   14.595    0.6421
   14.730    0.6207
   14.865    0.7491
   15.000    0.9524
   15.135    1.2520
   15.270    0.7277
   15.405    0.7277
   15.540    0.6314
   15.675    1.0059
   15.810    0.9524
   15.945    0.6849
   16.080    0.5778
   16.215    0.6956
   16.350    1.1878
   16.485    0.9631
   16.620    0.5564
   16.755    0.5993
   16.890    0.6207
   17.025    0.5993
   17.160    0.5243
   17.295    0.5457
   17.430    0.5564
   17.565    0.8668
   17.700    0.6849
   17.835    0.5778
   17.970    0.7384
   18.105    0.6742
   18.240    0.7598
   18.375    0.5993
   18.510    0.6635
   18.645    0.7812
   18.780    0.8454
   18.915    0.5671
   19.050    0.6314
   19.185    0.5350
   19.320    0.9096
   19.455    0.6314
   19.590    0.5886
   19.725    0.6635
   19.860    1.3804
   19.995    0.6956
   20.130    0.6528
   20.265    0.6314
   20.400    0.7705
   20.535    0.6314
   20.670    0.5671
   20.805    0.6100
   20.940    0.7063
   21.075    0.7384
   21.210    0.6528
   21.345    0.7063
   21.480    0.5564
   21.615    0.6421
   21.750    0.7491
   21.885    0.7063
   22.020    0.7384
   22.155    0.5993
   22.290    0.7063
   22.425    0.7170
   22.560    0.8026
   22.695    0.6100
   22.830    0.9310
   22.965    0.6528
   23.100    0.6314
   23.235    0.5457
   23.370    0.5993
   23.505    0.7277
   23.640    0.8240
   23.775    1.4553
   23.910    0.6849
   24.045    0.6528
   24.180    0.6742
   24.315    0.6956
   24.450    0.7063
   24.585    0.6742
   24.720    0.4601
   24.855    0.5243
   24.990    0.6956
   25.125    0.5671
   25.260    0.6742
   25.395    0.8026
   25.530    0.8347
   25.665    0.6421
   25.800    0.6742
   25.935    0.7598
   26.070    0.7598
   26.205    0.8454
   26.340    1.4660
   26.475    0.7384
   26.610    0.7384
   26.745    1.3697
   26.880    0.7277
   27.015    0.6314
   27.150    0.8561
   27.285    0.5993
   27.420    0.5671
   27.555    0.6528
   27.690    0.5564
   27.825    0.7277
   27.960    0.7705
   28.095    0.6207
   28.230    0.6314
   28.365    0.5671
   28.500    0.5350
   28.635    0.8668
   28.770    0.6635
   28.905    0.5886
   29.040    0.7170
   29.175    0.4922
   29.310    0.6314
   29.445    0.7170
   29.580    0.6100
   29.715    0.7919
   29.850    0.6742
   29.985    0.6956
   30.120    1.1022
   30.255    0.6207
   30.390    0.5564
   30.525    0.6100
   30.660    0.5457
   30.795    0.6100
   30.930    0.5886
   31.065    0.6635
   31.200    0.6635
   31.335    0.6207
   31.470    0.7170
   31.605    0.7170
   31.740    0.6742
   31.875    0.6100
   32.010    0.5457
   32.145    0.5243
   32.280    0.6742
   32.415    0.5886
   32.550    0.5993
   32.685    0.5350
   32.820    0.6207
   32.955    0.7063
   33.090    0.5029
   33.225    0.7705
   33.360    0.4387
   33.495    0.4708
   33.630    0.3745
   33.765    0.3959
   33.900    0.4494
   34.035    0.4173
   34.170    0.6314
   34.305    0.4815
   34.440    0.4387
   34.575    0.4601
   34.710    0.5457
   34.845    0.5671
   34.980    0.4708
   35.115    0.4601
   35.250    0.5350
   35.385    0.5671
   35.520    0.4601
   35.655    0.5350
   35.790    0.4922
   35.925    0.4494
   36.060    0.5029
   36.195    0.4601
   36.330    0.4708
   36.465    0.4708
   36.600    0.4708
   36.735    0.5886
   36.870    0.3959
   37.005    0.5778
   37.140    0.4173
   37.275    0.4922
   37.410    0.3959
   37.545    0.4601
   37.680    0.4815
   37.815    0.4601
   37.950    0.4173
   38.085    0.5136
   38.220    0.4173
   38.355    0.2568
   38.490    0.5029
   38.625    0.3852
   38.760    0.4066
   38.895    0.3103
   39.030    0.3745
   39.165    0.3745
   39.300    0.4387
   39.435    0.3959
   39.570    0.4066
   39.705    0.4173
   39.840    0.3424
   39.975    0.3638
   39.990    0.3531