File: data/PXRD/PXRD_KE-288_Cu-Ka1_capillary-1mm_60s-deg.xyd
    1.500   27.7181
    1.635   25.1237
    1.770   22.9612
    1.905   20.8899
    2.040   19.9263
    2.175   19.0758
    2.310   18.8433
    2.445   18.7186
    2.580   19.3365
    2.715   20.2923
    2.850   22.2213
    2.985   25.4862
    3.120   29.9745
    3.255   36.8080
    3.390   47.3495
    3.525   65.7407
    3.660  101.3893
    3.795  220.9312
    3.930   29.7367
    4.065   10.7311
    4.200    9.7148
    4.335    9.5269
    4.470    9.4901
    4.605    9.9377
    4.740   10.5231
    4.875   11.7053
    5.010   13.5141
    5.145   17.1819
    5.280   24.7104
    5.415   50.9382
    5.550   13.3992
    5.685    8.3210
    5.820    8.0490
    5.955    7.9831
    6.090    8.0218
    6.225    8.0788
    6.360    8.2306
    6.495    8.8494
    6.630   10.5652
    6.765   10.1071
    6.900    7.7453
    7.035    7.9647
    7.170    8.0191
    7.305    8.7871
    7.440   10.1948
    7.575   13.6221
    7.710   26.8036
    7.845   10.1360
    7.980    7.3653
    8.115    7.2863
    8.250    7.4978
    8.385    7.8076
    8.520    8.3763
    8.655   12.4206
    8.790    7.4425
    8.925    7.4618
    9.060    8.2649
    9.195   10.2054
    9.330   15.3958
    9.465   35.8820
    9.600   15.2370
    9.735    7.2986
    9.870    7.1371
   10.005    7.5496
   10.140    8.4316
   10.275   13.2122
   10.410    7.0792
   10.545    7.1476
   10.680    7.4478
   10.815    8.8880
   10.950   14.5050
   11.085    9.7481
   11.220    6.8931
   11.355    7.1661
   11.490    8.0709
   11.625   12.2863
   11.760    8.9512
   11.895    6.8290
   12.030    6.7465
   12.165    7.0528
   12.300    8.3632
   12.435    6.8018
   12.570    6.9273
   12.705    7.3021
   12.840    8.5694
   12.975    9.9754
   13.110    6.6956
   13.245    6.8097
   13.380    7.0502
   13.515    8.3886
   13.650    6.7070
   13.785    6.9545
   13.920    7.7400
   14.055   11.6491
   14.190    6.7176
   14.325    6.7720
   14.460    6.7957
   14.595    6.6833
   14.730    6.7237
   14.865    6.7167
   15.000    6.9580
   15.135    8.0885
   15.270    6.6096
   15.405    6.5798
   15.540    6.8334
   15.675    6.8694
   15.810    6.8001
   15.945    7.0458
   16.080    9.5357
   16.215    6.9817
   16.350    6.9071
   16.485    7.0107
   16.620    7.2091
   16.755    7.0414
   16.890    8.0253
   17.025   14.8754
   17.160    6.9826
   17.295    6.9229
   17.430    7.6698
   17.565    7.3793
   17.700    7.0397
   17.835    7.3837
   17.970    7.8647
   18.105    6.8905
   18.240    7.0528
   18.375    7.4750
   18.510    6.8203
   18.645    6.9879
   18.780    7.3705
   18.915    6.8685
   19.050    6.7351
   19.185    7.0177
   19.320    6.8826
   19.455    7.4372
   19.590    9.3874
   19.725    6.9133
   19.860    6.9089
   19.995    7.5101
   20.130    6.9624
   20.265    7.8910
   20.400    9.5226
   20.535    6.7948
   20.670    6.8922
   20.805    6.9835
   20.940    6.9133
   21.075    6.7299
   21.210    6.8773
   21.345    6.8273
   21.480    6.8045
   21.615    6.9273
   21.750    7.3100
   21.885    7.9217
   22.020    6.9045
   22.155    7.9173
   22.290    7.1906
   22.425    8.4193
   22.560   13.2903
   22.695    7.4232
   22.830   10.4020
   22.965    9.3576
   23.100    7.1862
   23.235    8.3623
   23.370    6.9563
   23.505    7.6988
   23.640    7.3600
   23.775    7.3346
   23.910    9.1223
   24.045    6.9563
   24.180    7.2091
   24.315    6.8440
   24.450    6.9949
   24.585    7.2880
   24.720    6.7764
   24.855    6.9738
   24.990    6.7500
   25.125    7.3223
   25.260    6.9826
   25.395    6.8685
   25.530    7.3293
   25.665    7.5180
   25.800   11.4903
   25.935    7.0353
   26.070    6.9449
   26.205    6.8062
   26.340    7.2670
   26.475    7.2415
   26.610    6.6140
   26.745    6.5008
   26.880    6.9967
   27.015    8.6405
   27.150    6.5719
   27.285    6.5034
   27.420    6.5543
   27.555    7.5013
   27.690    6.6675
   27.825    6.9835
   27.960    6.7509
   28.095    7.3986
   28.230    7.2161
   28.365    7.3302
   28.500    7.3995
   28.635    6.5166
   28.770    6.4850
   28.905    6.6210
   29.040    6.7228
   29.175    6.9563
   29.310    7.4759
   29.445    6.2981
   29.580    6.4148
   29.715    6.5771
   29.850    6.8483
   29.985    6.3779
   30.120    6.4306
   30.255    6.3727
   30.390    6.3095
   30.525    6.4341
   30.660    6.6114
   30.795    6.0927
   30.930    6.1076
   31.065    5.8566
   31.200    6.0444
   31.335    6.6202
   31.470    6.2217
   31.605    6.3437
   31.740    6.5157
   31.875    6.6087
   32.010    6.1313
   32.145    6.3068
   32.280    5.9373
   32.415    5.9566
   32.550    5.7925
   32.685    5.7522
   32.820    6.0971
   32.955    6.1322
   33.090    5.5722
   33.225    5.6223
   33.360    5.6196
   33.495    5.5073
   33.630    5.8083
   33.765    6.0418
   33.900    6.6368
   34.035    5.8145
   34.170    5.6749
   34.305    5.6539
   34.440    5.4573
   34.575    5.4362
   34.710    5.4090
   34.845    5.7109
   34.980    5.2861
   35.115    5.2651
   35.250    5.3958
   35.385    5.2677
   35.520    5.3072
   35.655    5.3590
   35.790    5.2984
   35.925    5.3827
   36.060    5.3765
   36.195    5.3906
   36.330    5.1448
   36.465    5.1790
   36.600    5.3414
   36.735    5.1808
   36.870    5.1018
   37.005    5.5793
   37.140    5.4090
   37.275    5.0325
   37.410    5.0553
   37.545    5.2554
   37.680    5.1957
   37.815    5.2115
   37.950    5.3203
   38.085    5.0702
   38.220    5.0377
   38.355    5.2607
   38.490    5.0009
   38.625    4.9710
   38.760    5.0202
   38.895    5.0193
   39.030    4.9789
   39.165    5.0535
   39.300    5.0869
   39.435    4.9245
   39.570    4.9816
   39.705    5.0535
   39.840    5.1009
   39.975    5.0097
   39.990    4.9096