File: data/PXRD/PXRD_KE-080_Cu-Ka1_film-3mm_5s-deg.xyd
    1.500    8.6151
    1.635    8.3834
    1.770    7.6251
    1.905    7.2459
    2.040    6.9616
    2.175    6.6561
    2.310    6.4244
    2.445    6.1611
    2.580    6.0348
    2.715    5.8768
    2.850    5.7188
    2.985    5.4871
    3.120    5.3818
    3.255    5.2343
    3.390    5.4239
    3.525    5.6872
    3.660    5.2765
    3.795    5.4766
    3.930    5.5187
    4.065    5.5082
    4.200    5.3923
    4.335    5.4134
    4.470    5.8031
    4.605    5.6767
    4.740    5.3818
    4.875    5.9716
    5.010    5.8873
    5.145    6.0874
    5.280    7.0248
    5.415    7.8146
    5.550    7.5408
    5.685    7.3512
    5.820    6.7299
    5.955    6.1611
    6.090    5.9716
    6.225    5.2449
    6.360    5.2765
    6.495    5.0658
    6.630    4.9394
    6.765    4.7288
    6.900    4.8657
    7.035    4.6024
    7.170    4.4760
    7.305    3.7493
    7.440    4.3918
    7.575    3.6862
    7.710    3.6862
    7.845    4.0021
    7.980    3.6862
    8.115    3.8336
    8.250    3.6019
    8.385    3.2438
    8.520    3.8020
    8.655    3.5598
    8.790    3.3070
    8.925    3.1701
    9.060    3.2333
    9.195    3.3386
    9.330    2.9595
    9.465    3.0226
    9.600    2.8857
    9.735    3.5598
    9.870    3.3386
   10.005    3.0964
   10.140    2.9700
   10.275    3.1385
   10.410    3.2017
   10.545    3.3175
   10.680    3.2227
   10.815    3.8125
   10.950    3.6335
   11.085    3.4334
   11.220    3.5071
   11.355    3.3702
   11.490    3.2965
   11.625    3.3281
   11.760    3.5071
   11.895    3.3702
   12.030    3.4650
   12.165    3.2333
   12.300    3.3281
   12.435    3.2543
   12.570    3.2543
   12.705    3.2122
   12.840    3.6124
   12.975    3.1596
   13.110    3.3386
   13.245    3.2333
   13.380    3.1701
   13.515    3.0542
   13.650    3.0332
   13.785    3.2438
   13.920    3.1701
   14.055    3.4860
   14.190    3.4229
   14.325    3.6756
   14.460    3.7072
   14.595    3.6440
   14.730    3.6124
   14.865    3.8020
   15.000    3.4439
   15.135    3.0753
   15.270    3.2017
   15.405    3.5176
   15.540    3.1596
   15.675    3.3175
   15.810    3.6756
   15.945    3.4123
   16.080    3.4229
   16.215    3.2543
   16.350    3.5176
   16.485    3.3597
   16.620    2.9279
   16.755    3.3597
   16.890    3.4755
   17.025    3.4544
   17.160    3.7599
   17.295    3.0016
   17.430    3.4018
   17.565    3.1596
   17.700    3.1280
   17.835    3.3702
   17.970    3.3070
   18.105    3.3807
   18.240    3.4544
   18.375    3.1912
   18.510    2.9595
   18.645    3.3491
   18.780    3.4755
   18.915    3.3913
   19.050    3.0964
   19.185    3.5492
   19.320    3.1280
   19.455    3.0016
   19.590    3.1912
   19.725    3.2965
   19.860    3.1069
   19.995    3.1069
   20.130    2.8857
   20.265    3.3281
   20.400    3.1385
   20.535    3.2754
   20.670    2.9595
   20.805    2.7067
   20.940    2.9384
   21.075    2.9279
   21.210    2.7067
   21.345    2.8647
   21.480    2.8331
   21.615    3.0437
   21.750    2.7067
   21.885    2.8963
   22.020    2.6856
   22.155    2.5908
   22.290    2.6224
   22.425    2.8752
   22.560    3.0437
   22.695    2.6435
   22.830    2.4750
   22.965    2.5487
   23.100    2.5171
   23.235    2.6435
   23.370    2.4013
   23.505    2.8225
   23.640    2.4118
   23.775    2.5276
   23.910    2.1590
   24.045    2.6330
   24.180    2.4329
   24.315    2.4118
   24.450    2.1380
   24.585    2.3591
   24.720    2.3486
   24.855    2.2643
   24.990    2.3486
   25.125    2.3381
   25.260    2.3170
   25.395    2.4013
   25.530    2.1590
   25.665    2.2433
   25.800    2.1801
   25.935    2.0432
   26.070    2.2012
   26.205    2.1801
   26.340    2.2012
   26.475    2.0116
   26.610    2.0432
   26.745    1.8957
   26.880    1.9484
   27.015    2.2433
   27.150    2.0537
   27.285    2.0537
   27.420    1.9168
   27.555    2.0537
   27.690    1.7799
   27.825    1.8115
   27.960    1.7272
   28.095    1.8852
   28.230    1.8009
   28.365    1.5271
   28.500    1.6746
   28.635    1.7062
   28.770    1.7483
   28.905    1.8009
   29.040    1.7483
   29.175    1.9905
   29.310    1.7167
   29.445    1.6430
   29.580    1.5166
   29.715    1.5692
   29.850    1.7272
   29.985    1.5166
   30.120    1.6956
   30.255    1.5482
   30.390    1.4639
   30.525    1.4323
   30.660    1.3481
   30.795    1.3902
   30.930    1.3797
   31.065    1.4639
   31.200    1.3691
   31.335    1.3165
   31.470    1.2954
   31.605    1.4218
   31.740    1.3691
   31.875    1.0953
   32.010    1.2954
   32.145    1.0848
   32.280    1.1480
   32.415    1.2322
   32.550    1.2849
   32.685    1.0637
   32.820    1.1269
   32.955    1.1585
   33.090    1.1901
   33.225    1.1480
   33.360    1.1269
   33.495    1.3902
   33.630    1.1374
   33.765    1.1164
   33.900    1.2428
   34.035    1.0953
   34.170    1.2006
   34.305    1.0742
   34.440    1.0532
   34.575    1.0742
   34.710    1.2006
   34.845    1.0005
   34.980    1.0005
   35.115    0.9163
   35.250    1.2638
   35.385    1.0111
   35.520    0.9479
   35.655    1.1058
   35.790    0.9268
   35.925    1.1269
   36.060    1.0216
   36.195    1.0742
   36.330    1.0953
   36.465    1.0321
   36.600    0.8847
   36.735    1.0742
   36.870    0.9795
   37.005    1.0532
   37.140    1.0216
   37.275    0.9373
   37.410    1.0637
   37.545    1.0848
   37.680    1.0321
   37.815    0.9373
   37.950    0.8531
   38.085    1.0848
   38.220    0.7899
   38.355    0.9163
   38.490    1.0532
   38.625    0.8741
   38.760    0.9900
   38.895    0.9584
   39.030    0.8847
   39.165    0.8004
   39.300    0.8215
   39.435    0.9479
   39.570    0.8847
   39.705    0.9057
   39.840    0.7056
   39.975    1.0321
   39.990    1.0532