File: data/PXRD/PXRD_KE-049-6_Cu-Ka1_capillary-1mm_5s-deg.xyd
    1.500   24.2127
    1.635   22.7172
    1.770   20.7372
    1.905   19.5471
    2.040   19.8526
    2.175   20.6319
    2.310   20.5055
    2.445   22.7383
    2.580   26.1190
    2.715   29.4050
    2.850   36.4297
    2.985   46.2770
    3.120   60.8426
    3.255   86.7720
    3.390  150.1527
    3.525   90.4476
    3.660   39.5787
    3.795   48.4466
    3.930   66.8562
    4.065   82.4961
    4.200   54.7130
    4.335   25.4450
    4.470   13.2175
    4.605   10.2791
    4.740    8.5835
    4.875    8.5519
    5.010    7.8462
    5.145    7.8146
    5.280    8.1622
    5.415    7.8989
    5.550    7.2459
    5.685    7.6461
    5.820    6.7404
    5.955    7.3196
    6.090    7.5619
    6.225    7.5829
    6.360    7.5619
    6.495    8.6677
    6.630   10.3423
    6.765   13.9442
    6.900   22.8120
    7.035   13.5229
    7.170    7.8146
    7.305    7.8884
    7.440    7.8357
    7.575    7.9410
    7.710    9.1627
    7.845    9.2575
    7.980   11.6377
    8.115   13.3123
    8.250   14.3233
    8.385   12.8699
    8.520   11.3849
    8.655    9.3102
    8.790    8.2570
    8.925    7.9726
    9.060    8.6045
    9.195    9.3312
    9.330    8.5308
    9.465    7.1511
    9.600    6.8141
    9.735    7.2565
    9.870    7.4355
   10.005    7.8673
   10.140    7.7093
   10.275    7.5829
   10.410    8.4150
   10.545    7.4566
   10.680    7.2143
   10.815    7.5829
   10.950    7.0458
   11.085    6.8457
   11.220    7.3091
   11.355    6.8457
   11.490    6.9721
   11.625    6.5508
   11.760    7.2249
   11.895    7.4776
   12.030    8.4255
   12.165    8.5203
   12.300    8.4887
   12.435    8.0779
   12.570    8.0885
   12.705    8.1938
   12.840    7.5303
   12.975    7.3091
   13.110    7.2986
   13.245    7.8357
   13.380    7.8252
   13.515    7.7514
   13.650    7.3196
   13.785    7.2459
   13.920    7.1827
   14.055    7.3618
   14.190    6.6877
   14.325    6.9616
   14.460    6.7299
   14.595    6.5403
   14.730    6.2770
   14.865    6.8141
   15.000    7.0142
   15.135    6.7299
   15.270    6.7720
   15.405    7.0985
   15.540    7.1827
   15.675    7.2565
   15.810    6.8246
   15.945    6.9616
   16.080    6.7193
   16.215    6.7404
   16.350    7.0142
   16.485    7.0142
   16.620    6.7299
   16.755    6.7720
   16.890    6.5824
   17.025    6.8773
   17.160    7.0563
   17.295    6.8246
   17.430    7.1090
   17.565    6.9405
   17.700    7.2249
   17.835    6.9721
   17.970    6.9089
   18.105    6.9510
   18.240    6.8984
   18.375    7.2038
   18.510    7.4460
   18.645    6.9194
   18.780    6.8773
   18.915    7.0142
   19.050    6.6983
   19.185    6.6877
   19.320    7.4144
   19.455    7.8673
   19.590    7.7199
   19.725    8.0147
   19.860    7.6883
   19.995    8.0463
   20.130    7.7620
   20.265    7.5724
   20.400    7.9200
   20.535    7.7830
   20.670    7.2775
   20.805    7.6777
   20.940    8.1622
   21.075    7.9410
   21.210    7.8673
   21.345    8.3307
   21.480    7.8357
   21.615    7.6356
   21.750    7.5724
   21.885    7.2038
   22.020    7.8252
   22.155    7.7409
   22.290    7.7936
   22.425    7.8252
   22.560    7.7304
   22.695    7.9094
   22.830    7.1511
   22.965    7.7199
   23.100    7.7514
   23.235    7.2565
   23.370    7.2038
   23.505    7.5724
   23.640    7.5619
   23.775    7.0774
   23.910    6.7615
   24.045    7.4566
   24.180    7.1511
   24.315    7.3828
   24.450    7.0985
   24.585    7.6461
   24.720    7.6883
   24.855    7.3091
   24.990    7.4039
   25.125    7.0985
   25.260    6.9405
   25.395    7.2670
   25.530    7.0353
   25.665    6.7404
   25.800    7.0774
   25.935    6.5824
   26.070    6.8562
   26.205    6.5719
   26.340    6.5508
   26.475    6.7615
   26.610    6.9721
   26.745    6.5298
   26.880    6.6772
   27.015    7.0774
   27.150    6.5298
   27.285    6.8457
   27.420    6.5719
   27.555    6.4244
   27.690    6.7299
   27.825    6.4771
   27.960    6.6035
   28.095    6.7404
   28.230    6.8562
   28.365    6.7930
   28.500    6.4244
   28.635    6.2981
   28.770    5.9400
   28.905    6.2559
   29.040    6.1927
   29.175    6.7825
   29.310    6.5929
   29.445    6.3507
   29.580    6.1717
   29.715    6.1085
   29.850    6.4876
   29.985    6.2875
   30.120    6.1190
   30.255    6.1506
   30.390    6.4244
   30.525    6.0558
   30.660    5.9716
   30.795    5.6767
   30.930    6.2033
   31.065    6.2559
   31.200    6.1717
   31.335    6.2349
   31.470    6.3718
   31.605    6.3402
   31.740    6.5087
   31.875    5.9610
   32.010    6.3191
   32.145    6.1190
   32.280    6.0348
   32.415    5.9821
   32.550    5.6451
   32.685    6.0453
   32.820    5.5082
   32.955    5.5924
   33.090    6.0558
   33.225    5.8557
   33.360    5.8452
   33.495    5.7715
   33.630    6.2349
   33.765    5.4239
   33.900    5.3607
   34.035    5.4134
   34.170    5.6767
   34.305    6.1506
   34.440    5.7820
   34.575    5.7925
   34.710    5.5187
   34.845    5.3291
   34.980    5.1817
   35.115    5.8031
   35.250    5.3397
   35.385    5.5924
   35.520    5.3397
   35.655    5.5292
   35.790    5.5082
   35.925    5.5187
   36.060    5.5608
   36.195    5.2238
   36.330    5.2870
   36.465    4.9394
   36.600    5.2659
   36.735    5.6029
   36.870    5.4239
   37.005    5.7820
   37.140    5.5608
   37.275    5.3081
   37.410    5.0658
   37.545    5.2659
   37.680    5.1606
   37.815    5.2449
   37.950    5.6240
   38.085    5.0237
   38.220    5.4028
   38.355    5.3291
   38.490    4.9394
   38.625    5.3397
   38.760    5.3186
   38.895    5.0237
   39.030    5.2659
   39.165    5.0448
   39.300    5.0974
   39.435    5.4134
   39.570    5.4239
   39.705    5.3712
   39.840    5.0869
   39.975    5.0132
   39.990    5.0132