File: data/PXRD/PXRD_KE-141_Cu-Ka1_capillary-1mm_5s-deg.xyd
    1.500    8.7309
    1.635    8.3834
    1.770    7.3828
    1.905    7.0037
    2.040    6.5192
    2.175    6.2559
    2.310    5.4660
    2.445    5.6767
    2.580    5.8347
    2.715    5.5082
    2.850    5.3923
    2.985    5.1290
    3.120    4.8868
    3.255    5.0342
    3.390    5.1606
    3.525    4.9816
    3.660    4.9184
    3.795    4.9710
    3.930    4.9710
    4.065    4.6130
    4.200    4.6235
    4.335    4.6551
    4.470    4.8973
    4.605    4.7815
    4.740    4.9605
    4.875    4.9710
    5.010    5.0026
    5.145    5.0553
    5.280    4.9289
    5.415    4.9605
    5.550    4.9394
    5.685    5.1290
    5.820    5.1185
    5.955    5.2870
    6.090    4.8973
    6.225    5.1606
    6.360    5.1922
    6.495    5.0553
    6.630    4.7393
    6.765    5.2659
    6.900    5.0448
    7.035    5.3712
    7.170    5.1395
    7.305    5.1922
    7.440    5.0132
    7.575    4.9289
    7.710    5.5187
    7.845    5.2027
    7.980    5.1290
    8.115    5.4450
    8.250    5.1395
    8.385    5.0764
    8.520    5.4871
    8.655    5.1185
    8.790    5.2765
    8.925    5.4450
    9.060    5.4976
    9.195    5.3607
    9.330    5.0974
    9.465    5.2027
    9.600    5.1817
    9.735    5.0026
    9.870    5.3186
   10.005    5.3607
   10.140    5.0026
   10.275    4.9184
   10.410    5.0553
   10.545    5.3186
   10.680    5.4660
   10.815    4.9921
   10.950    5.0553
   11.085    5.0448
   11.220    5.2870
   11.355    5.2554
   11.490    4.8657
   11.625    4.8341
   11.760    4.9816
   11.895    5.0342
   12.030    5.1080
   12.165    4.7709
   12.300    4.9394
   12.435    5.0448
   12.570    5.0553
   12.705    5.0974
   12.840    4.7920
   12.975    4.8236
   13.110    5.0658
   13.245    4.8131
   13.380    4.9289
   13.515    4.8657
   13.650    4.8657
   13.785    4.7604
   13.920    4.7815
   14.055    5.1080
   14.190    4.9605
   14.325    5.0132
   14.460    4.6235
   14.595    4.6024
   14.730    4.7815
   14.865    5.3291
   15.000    4.8025
   15.135    4.9078
   15.270    4.9078
   15.405    4.9710
   15.540    4.7077
   15.675    4.8552
   15.810    4.6761
   15.945    5.2343
   16.080    5.0764
   16.215    5.0553
   16.350    4.8552
   16.485    4.8236
   16.620    4.8657
   16.755    5.3923
   16.890    4.8447
   17.025    5.1395
   17.160    5.0026
   17.295    5.0764
   17.430    5.0658
   17.565    4.8236
   17.700    4.9605
   17.835    5.0658
   17.970    4.8341
   18.105    4.6130
   18.240    5.1395
   18.375    5.0764
   18.510    4.8657
   18.645    5.3186
   18.780    5.0342
   18.915    5.3081
   19.050    5.3923
   19.185    5.1711
   19.320    5.0974
   19.455    4.8025
   19.590    4.8341
   19.725    4.8973
   19.860    5.1501
   19.995    4.8763
   20.130    4.9289
   20.265    5.3607
   20.400    5.1185
   20.535    5.0764
   20.670    5.0764
   20.805    4.8763
   20.940    4.9816
   21.075    5.2027
   21.210    5.2238
   21.345    4.8868
   21.480    5.1711
   21.615    4.7815
   21.750    4.6972
   21.885    5.3186
   22.020    5.0658
   22.155    4.6761
   22.290    5.0553
   22.425    4.7393
   22.560    5.1922
   22.695    5.1922
   22.830    4.9605
   22.965    4.9816
   23.100    5.0764
   23.235    4.8236
   23.370    5.1606
   23.505    4.7183
   23.640    4.4444
   23.775    4.4866
   23.910    4.5287
   24.045    5.0237
   24.180    4.6130
   24.315    4.6551
   24.450    4.6340
   24.585    4.6130
   24.720    4.7393
   24.855    4.8341
   24.990    4.7815
   25.125    4.3391
   25.260    4.4971
   25.395    4.7499
   25.530    4.4128
   25.665    4.3813
   25.800    4.5182
   25.935    4.4866
   26.070    4.5392
   26.205    4.4971
   26.340    4.7393
   26.475    4.5814
   26.610    4.3707
   26.745    4.2759
   26.880    4.3602
   27.015    4.4023
   27.150    4.2127
   27.285    4.2759
   27.420    3.9284
   27.555    4.5498
   27.690    4.1496
   27.825    4.2654
   27.960    4.1811
   28.095    3.8547
   28.230    4.3918
   28.365    3.8863
   28.500    4.2127
   28.635    3.8547
   28.770    4.0126
   28.905    4.3918
   29.040    4.3813
   29.175    4.0548
   29.310    3.9810
   29.445    3.8968
   29.580    3.8652
   29.715    4.0864
   29.850    3.8757
   29.985    4.1074
   30.120    3.9284
   30.255    4.0969
   30.390    4.0021
   30.525    3.9916
   30.660    3.7283
   30.795    3.8441
   30.930    3.9179
   31.065    4.1601
   31.200    3.7283
   31.335    3.8652
   31.470    3.7388
   31.605    3.8757
   31.740    4.0548
   31.875    4.0337
   32.010    4.1285
   32.145    4.3497
   32.280    3.5914
   32.415    3.5387
   32.550    3.7599
   32.685    3.4334
   32.820    3.8020
   32.955    3.6651
   33.090    3.3491
   33.225    3.6124
   33.360    3.1806
   33.495    3.7177
   33.630    3.4123
   33.765    3.6967
   33.900    3.7283
   34.035    3.4334
   34.170    3.5598
   34.305    3.5176
   34.440    3.0964
   34.575    3.6124
   34.710    3.0753
   34.845    3.2859
   34.980    3.0121
   35.115    3.2333
   35.250    3.0332
   35.385    3.1174
   35.520    3.3175
   35.655    3.2859
   35.790    3.3386
   35.925    3.1806
   36.060    3.1806
   36.195    3.0648
   36.330    3.1701
   36.465    3.4229
   36.600    3.1174
   36.735    3.1069
   36.870    3.2543
   37.005    2.9384
   37.140    2.8541
   37.275    2.8857
   37.410    2.9068
   37.545    3.1280
   37.680    3.0964
   37.815    2.9805
   37.950    2.7909
   38.085    2.9910
   38.220    3.0648
   38.355    2.9173
   38.490    3.0648
   38.625    2.9910
   38.760    2.7909
   38.895    2.9910
   39.030    2.9595
   39.165    2.7593
   39.300    2.7593
   39.435    2.7488
   39.570    2.7804
   39.705    2.8015
   39.840    3.0016
   39.975    2.7067
   39.990    2.8331