File: data/PXRD/PXRD_KE-081-2_Cu-Ka1_capillary-1mm_5s-deg.xyd
    1.500   17.6514
    1.635   16.4613
    1.770   15.4713
    1.905   13.9547
    2.040   13.2807
    2.175   12.5118
    2.310   12.1327
    2.445   11.4271
    2.580   11.0690
    2.715   11.4481
    2.850   11.4797
    2.985   11.0900
    3.120   12.5434
    3.255   13.5650
    3.390   16.6719
    3.525   20.1896
    3.660   26.9510
    3.795   45.7820
    3.930   38.5045
    4.065    9.3102
    4.200    8.2675
    4.335    7.2986
    4.470    7.2459
    4.605    7.2880
    4.740    7.0774
    4.875    7.7199
    5.010    8.0569
    5.145    9.8157
    5.280   12.0169
    5.415   17.2301
    5.550   16.5350
    5.685    6.8352
    5.820    6.6035
    5.955    6.2033
    6.090    6.5929
    6.225    6.5508
    6.360    6.6245
    6.495    7.1933
    6.630    8.2991
    6.765   12.0484
    6.900    6.4982
    7.035    6.3296
    7.170    6.2665
    7.305    6.2454
    7.440    7.0985
    7.575    7.2038
    7.710    8.4044
    7.845    9.3418
    7.980    6.5929
    8.115    6.2875
    8.250    6.0874
    8.385    5.9400
    8.520    6.6351
    8.655    6.7404
    8.790    6.2454
    8.925    6.3823
    9.060    6.2875
    9.195    6.4771
    9.330    7.4987
    9.465    9.4365
    9.600   11.5956
    9.735    6.4666
    9.870    6.4455
   10.005    6.8984
   10.140    7.4039
   10.275    7.9410
   10.410    6.9510
   10.545    6.1611
   10.680    6.5403
   10.815    6.4139
   10.950    6.6877
   11.085    7.9726
   11.220    6.0558
   11.355    6.4244
   11.490    6.3402
   11.625    7.0353
   11.760    7.9726
   11.895    5.3923
   12.030    5.7715
   12.165    5.8768
   12.300    5.8768
   12.435    5.8768
   12.570    5.3818
   12.705    5.5187
   12.840    5.7083
   12.975    7.3302
   13.110    5.5608
   13.245    5.7504
   13.380    5.5608
   13.515    6.3718
   13.650    5.6451
   13.785    5.6240
   13.920    5.7504
   14.055    6.6456
   14.190    6.0769
   14.325    5.4134
   14.460    5.4660
   14.595    5.4871
   14.730    5.4871
   14.865    5.4134
   15.000    5.5819
   15.135    6.0453
   15.270    5.4660
   15.405    5.4450
   15.540    5.2870
   15.675    5.8136
   15.810    5.7399
   15.945    5.1080
   16.080    5.6977
   16.215    5.6029
   16.350    5.7293
   16.485    5.8136
   16.620    5.7188
   16.755    5.7504
   16.890    5.7715
   17.025    6.0769
   17.160    5.8347
   17.295    5.6977
   17.430    5.5187
   17.565    5.4976
   17.700    5.4766
   17.835    5.3818
   17.970    5.5082
   18.105    5.1080
   18.240    5.6451
   18.375    5.8768
   18.510    5.7083
   18.645    5.7399
   18.780    5.9505
   18.915    5.3712
   19.050    5.6345
   19.185    5.6872
   19.320    5.7925
   19.455    5.6345
   19.590    5.8241
   19.725    5.8557
   19.860    5.6240
   19.995    5.4555
   20.130    5.4871
   20.265    5.8662
   20.400    6.6877
   20.535    5.6451
   20.670    5.8241
   20.805    5.6240
   20.940    5.6872
   21.075    5.7820
   21.210    5.6240
   21.345    5.4871
   21.480    5.7188
   21.615    5.8136
   21.750    5.7188
   21.885    5.8557
   22.020    5.6767
   22.155    5.7504
   22.290    6.0769
   22.425    5.7925
   22.560    6.5192
   22.695    5.6029
   22.830    6.0242
   22.965    6.7825
   23.100    5.7504
   23.235    5.8662
   23.370    5.7188
   23.505    5.4450
   23.640    5.5714
   23.775    5.7188
   23.910    6.1717
   24.045    5.6872
   24.180    5.7820
   24.315    5.3923
   24.450    5.7188
   24.585    5.4450
   24.720    5.4976
   24.855    5.3291
   24.990    5.4660
   25.125    5.6240
   25.260    5.4450
   25.395    5.3818
   25.530    5.6767
   25.665    5.5187
   25.800    6.2981
   25.935    5.3081
   26.070    5.1817
   26.205    5.1711
   26.340    5.4450
   26.475    5.4976
   26.610    5.1922
   26.745    5.5187
   26.880    4.9921
   27.015    5.4871
   27.150    5.0974
   27.285    5.3291
   27.420    5.2659
   27.555    5.3502
   27.690    5.0658
   27.825    4.9184
   27.960    5.1501
   28.095    4.9710
   28.230    5.2133
   28.365    5.0764
   28.500    4.9816
   28.635    5.0764
   28.770    4.7920
   28.905    4.8868
   29.040    5.2765
   29.175    5.2765
   29.310    4.8657
   29.445    4.7815
   29.580    5.0658
   29.715    4.6656
   29.850    4.7288
   29.985    4.9289
   30.120    4.9184
   30.255    4.7604
   30.390    4.8657
   30.525    4.6656
   30.660    4.8025
   30.795    4.6235
   30.930    4.6761
   31.065    5.1290
   31.200    4.5603
   31.335    4.4128
   31.470    4.6972
   31.605    4.4760
   31.740    4.6235
   31.875    4.9605
   32.010    4.9184
   32.145    4.7499
   32.280    4.4866
   32.415    4.3707
   32.550    4.4550
   32.685    4.2865
   32.820    4.3391
   32.955    4.4866
   33.090    4.1180
   33.225    4.2759
   33.360    4.3391
   33.495    4.4128
   33.630    4.5392
   33.765    4.2233
   33.900    5.1290
   34.035    4.5708
   34.170    4.0758
   34.305    4.3918
   34.440    4.2022
   34.575    3.7809
   34.710    4.2443
   34.845    4.4128
   34.980    4.3813
   35.115    3.9073
   35.250    3.8547
   35.385    4.0864
   35.520    4.2338
   35.655    4.2338
   35.790    4.2233
   35.925    4.0653
   36.060    3.7809
   36.195    4.0653
   36.330    4.1496
   36.465    3.9073
   36.600    3.9179
   36.735    3.9179
   36.870    3.8441
   37.005    4.1811
   37.140    3.9389
   37.275    3.7493
   37.410    3.8336
   37.545    3.9810
   37.680    4.0864
   37.815    4.2022
   37.950    3.6546
   38.085    4.0442
   38.220    4.0758
   38.355    3.9705
   38.490    3.9600
   38.625    4.1285
   38.760    3.6335
   38.895    3.8547
   39.030    3.6230
   39.165    3.6230
   39.300    4.0969
   39.435    3.8020
   39.570    3.8757
   39.705    3.7493
   39.840    4.0653
   39.975    3.4123
   39.990    3.6756