File: data/PXRD/PXRD_KE-189_Cu-Ka1_capillary-1mm_5s-deg.xyd
    1.500   21.8431
    1.635   19.3997
    1.770   16.5561
    1.905   13.2175
    2.040   11.7114
    2.175   10.4055
    2.310    9.4471
    2.445    8.2359
    2.580    7.4882
    2.715    7.1090
    2.850    6.4982
    2.985    6.3086
    3.120    5.4344
    3.255    4.9184
    3.390    5.5503
    3.525    5.0869
    3.660    4.7183
    3.795    4.8868
    3.930    4.6867
    4.065    4.5498
    4.200    4.1811
    4.335    4.2233
    4.470    3.9284
    4.605    4.1496
    4.740    3.8652
    4.875    3.9073
    5.010    3.8231
    5.145    3.7915
    5.280    3.5914
    5.415    3.8652
    5.550    3.4650
    5.685    3.3491
    5.820    3.4018
    5.955    3.2859
    6.090    3.1385
    6.225    3.4755
    6.360    3.1280
    6.495    2.8225
    6.630    3.2965
    6.765    3.3807
    6.900    3.3913
    7.035    3.1069
    7.170    3.4334
    7.305    3.3386
    7.440    3.3597
    7.575    3.2438
    7.710    3.1912
    7.845    3.4123
    7.980    3.0121
    8.115    3.3386
    8.250    2.9595
    8.385    3.5492
    8.520    3.2754
    8.655    3.0437
    8.790    3.0964
    8.925    3.0542
    9.060    3.0858
    9.195    3.2333
    9.330    3.0964
    9.465    3.2227
    9.600    3.0648
    9.735    3.0648
    9.870    3.1806
   10.005    2.9384
   10.140    3.2227
   10.275    2.8963
   10.410    2.8015
   10.545    2.9068
   10.680    2.8015
   10.815    3.0332
   10.950    3.2017
   11.085    2.8541
   11.220    2.6856
   11.355    2.6962
   11.490    2.7172
   11.625    2.9279
   11.760    2.9805
   11.895    2.6435
   12.030    2.7278
   12.165    2.9700
   12.300    2.4855
   12.435    2.7699
   12.570    2.7593
   12.705    2.7278
   12.840    2.9700
   12.975    2.8647
   13.110    2.9700
   13.245    2.9700
   13.380    2.4223
   13.515    2.7278
   13.650    2.6435
   13.785    2.8436
   13.920    2.6119
   14.055    2.6330
   14.190    2.6330
   14.325    2.8752
   14.460    2.6330
   14.595    2.4750
   14.730    2.7909
   14.865    2.8015
   15.000    2.5698
   15.135    2.5908
   15.270    2.8541
   15.405    2.7278
   15.540    2.9910
   15.675    2.6435
   15.810    2.6119
   15.945    2.8015
   16.080    2.5908
   16.215    2.6646
   16.350    2.7909
   16.485    2.8015
   16.620    2.3381
   16.755    2.6646
   16.890    2.6646
   17.025    2.7593
   17.160    2.6540
   17.295    2.7804
   17.430    2.8963
   17.565    2.5382
   17.700    2.6751
   17.835    2.6646
   17.970    2.8752
   18.105    2.7383
   18.240    2.6119
   18.375    2.7383
   18.510    2.7278
   18.645    2.5592
   18.780    2.6646
   18.915    2.8541
   19.050    2.7909
   19.185    2.6540
   19.320    2.5803
   19.455    2.9489
   19.590    2.7804
   19.725    2.6540
   19.860    2.9173
   19.995    2.7909
   20.130    3.0437
   20.265    2.9384
   20.400    2.7488
   20.535    2.6330
   20.670    3.1174
   20.805    2.8752
   20.940    2.8436
   21.075    2.8541
   21.210    2.6751
   21.345    2.7699
   21.480    2.7593
   21.615    2.7278
   21.750    2.7383
   21.885    2.9595
   22.020    2.7067
   22.155    2.8963
   22.290    2.8225
   22.425    2.7593
   22.560    2.6646
   22.695    2.7172
   22.830    2.9489
   22.965    2.8752
   23.100    2.6962
   23.235    2.5382
   23.370    2.6856
   23.505    2.6435
   23.640    2.7383
   23.775    2.5382
   23.910    2.7593
   24.045    3.0121
   24.180    2.8647
   24.315    2.8541
   24.450    2.4223
   24.585    2.6962
   24.720    2.6751
   24.855    2.5276
   24.990    2.7909
   25.125    2.4434
   25.260    2.2959
   25.395    2.6014
   25.530    2.6962
   25.665    2.4539
   25.800    2.8541
   25.935    2.6856
   26.070    2.5698
   26.205    2.4645
   26.340    2.6224
   26.475    2.4013
   26.610    2.3275
   26.745    2.4013
   26.880    2.6119
   27.015    2.4961
   27.150    2.3486
   27.285    2.3275
   27.420    2.4645
   27.555    2.5908
   27.690    2.3697
   27.825    2.4539
   27.960    2.4223
   28.095    2.3802
   28.230    1.9800
   28.365    2.3486
   28.500    2.4539
   28.635    2.2538
   28.770    1.9905
   28.905    2.1064
   29.040    2.3065
   29.175    2.6224
   29.310    2.1906
   29.445    2.1274
   29.580    2.3802
   29.715    2.1696
   29.850    2.2222
   29.985    2.5171
   30.120    2.2538
   30.255    2.0642
   30.390    2.1696
   30.525    2.4750
   30.660    2.1380
   30.795    2.2538
   30.930    2.1485
   31.065    2.1801
   31.200    2.1274
   31.335    2.2117
   31.470    1.8536
   31.605    2.2433
   31.740    1.9905
   31.875    1.9168
   32.010    1.8641
   32.145    2.0537
   32.280    1.9273
   32.415    1.9379
   32.550    1.9168
   32.685    2.0432
   32.820    1.8536
   32.955    2.0748
   33.090    1.7483
   33.225    1.8641
   33.360    1.9905
   33.495    1.9168
   33.630    1.8009
   33.765    1.9168
   33.900    1.9168
   34.035    1.9063
   34.170    1.9695
   34.305    1.7588
   34.440    1.7799
   34.575    1.8431
   34.710    1.8957
   34.845    1.9063
   34.980    1.8325
   35.115    1.6324
   35.250    1.6746
   35.385    1.8220
   35.520    1.8536
   35.655    1.7167
   35.790    1.6746
   35.925    1.7167
   36.060    1.8747
   36.195    1.7799
   36.330    1.9063
   36.465    1.6956
   36.600    1.4429
   36.735    1.5903
   36.870    1.6219
   37.005    1.5482
   37.140    1.6535
   37.275    1.6324
   37.410    1.8009
   37.545    1.6851
   37.680    1.5587
   37.815    1.8009
   37.950    1.6535
   38.085    1.5482
   38.220    1.7272
   38.355    1.6219
   38.490    1.7378
   38.625    1.6956
   38.760    1.6851
   38.895    1.5903
   39.030    2.0432
   39.165    1.4955
   39.300    1.6008
   39.435    1.5587
   39.570    1.5482
   39.705    1.6430
   39.840    1.4534
   39.975    1.6219
   39.990    1.5692