File: data/PXRD/PXRD_KE-132_Cu-Ka1_capillary-1mm_5s-deg.xyd
    1.500   30.8689
    1.635   28.1201
    1.770   25.9716
    1.905   24.5076
    2.040   24.4971
    2.175   25.4134
    2.310   26.9932
    2.445   29.8368
    2.580   32.5540
    2.715   38.8520
    2.850   47.2143
    2.985   59.7894
    3.120   78.5571
    3.255  108.6572
    3.390  177.1459
    3.525  139.3681
    3.660   64.7920
    3.795   64.8868
    3.930   76.1875
    4.065   79.6525
    4.200   62.4961
    4.335   35.5766
    4.470   19.9895
    4.605   13.8810
    4.740   11.3217
    4.875    9.6577
    5.010    8.9731
    5.145    8.6467
    5.280    7.9305
    5.415    7.9937
    5.550    7.6040
    5.685    7.1195
    5.820    7.0879
    5.955    7.1090
    6.090    7.5197
    6.225    7.2354
    6.360    8.2991
    6.495    9.5313
    6.630   11.1532
    6.765   14.8815
    6.900   22.9489
    7.035   17.1669
    7.170    9.4050
    7.305    8.2043
    7.440    8.7204
    7.575    8.4044
    7.710    9.0890
    7.845   10.3633
    7.980   11.7852
    8.115   12.9226
    8.250   12.8699
    8.385   12.1222
    8.520   11.2796
    8.655    9.2154
    8.790    8.3096
    8.925    7.4882
    9.060    7.0879
    9.195    6.4876
    9.330    6.4982
    9.465    6.8984
    9.600    6.4455
    9.735    6.4666
    9.870    6.2665
   10.005    6.3086
   10.140    6.4350
   10.275    6.8141
   10.410    7.3618
   10.545    6.7193
   10.680    6.4244
   10.815    6.2665
   10.950    6.4771
   11.085    6.6772
   11.220    6.0348
   11.355    6.0979
   11.490    6.7825
   11.625    6.5824
   11.760    6.9194
   11.895    6.6877
   12.030    6.9932
   12.165    6.9826
   12.300    7.3091
   12.435    7.5092
   12.570    7.4039
   12.705    7.4355
   12.840    7.7093
   12.975    6.9194
   13.110    6.6035
   13.245    6.9616
   13.380    6.9721
   13.515    6.6561
   13.650    6.7825
   13.785    6.6983
   13.920    6.8668
   14.055    6.7088
   14.190    6.4876
   14.325    6.5087
   14.460    6.2349
   14.595    6.2454
   14.730    6.2981
   14.865    6.1927
   15.000    6.1401
   15.135    6.2349
   15.270    6.8246
   15.405    5.9926
   15.540    6.1611
   15.675    6.5929
   15.810    6.6561
   15.945    6.4350
   16.080    6.1085
   16.215    6.5508
   16.350    6.1822
   16.485    6.2875
   16.620    6.0979
   16.755    6.0558
   16.890    6.3612
   17.025    5.9189
   17.160    6.1822
   17.295    5.8873
   17.430    6.1506
   17.565    6.3718
   17.700    6.3718
   17.835    6.3296
   17.970    5.9610
   18.105    6.2349
   18.240    6.0137
   18.375    6.3718
   18.510    6.2665
   18.645    5.7188
   18.780    6.0664
   18.915    6.3928
   19.050    6.2559
   19.185    6.6140
   19.320    6.7299
   19.455    6.4666
   19.590    6.6983
   19.725    7.0985
   19.860    6.7930
   19.995    7.2038
   20.130    7.2354
   20.265    7.2354
   20.400    6.7825
   20.535    6.8562
   20.670    7.1617
   20.805    7.3618
   20.940    7.1406
   21.075    7.2670
   21.210    7.5197
   21.345    6.8457
   21.480    7.3091
   21.615    7.3302
   21.750    7.3934
   21.885    7.1722
   22.020    7.4460
   22.155    7.4144
   22.290    6.9089
   22.425    7.5935
   22.560    7.3302
   22.695    7.1301
   22.830    6.8562
   22.965    6.8984
   23.100    6.9194
   23.235    6.9510
   23.370    7.2459
   23.505    6.7509
   23.640    6.6351
   23.775    6.9510
   23.910    6.3612
   24.045    6.6667
   24.180    6.6351
   24.315    6.5087
   24.450    6.8141
   24.585    6.8668
   24.720    6.4876
   24.855    6.5087
   24.990    6.3718
   25.125    6.5613
   25.260    6.6983
   25.395    6.4876
   25.530    6.5508
   25.665    6.2875
   25.800    6.1401
   25.935    6.2665
   26.070    5.8241
   26.205    6.2349
   26.340    6.3086
   26.475    6.2349
   26.610    5.8241
   26.745    5.7504
   26.880    6.0558
   27.015    6.0664
   27.150    6.1822
   27.285    6.0769
   27.420    5.9821
   27.555    5.9294
   27.690    5.5819
   27.825    5.4134
   27.960    5.7399
   28.095    5.7504
   28.230    6.4455
   28.365    5.7715
   28.500    6.2033
   28.635    5.6240
   28.770    5.6767
   28.905    5.4976
   29.040    5.8136
   29.175    5.8873
   29.310    5.7504
   29.445    5.1922
   29.580    5.7609
   29.715    5.3081
   29.850    5.5924
   29.985    5.4555
   30.120    5.4239
   30.255    5.3081
   30.390    5.5292
   30.525    5.4766
   30.660    5.5503
   30.795    5.2659
   30.930    5.2554
   31.065    5.3923
   31.200    5.4976
   31.335    5.2975
   31.470    5.4871
   31.605    5.6029
   31.740    5.6556
   31.875    5.2659
   32.010    5.6029
   32.145    5.1817
   32.280    5.7293
   32.415    5.3186
   32.550    5.1185
   32.685    5.1817
   32.820    5.4028
   32.955    5.2765
   33.090    5.1606
   33.225    5.2449
   33.360    4.7920
   33.495    4.9921
   33.630    4.9816
   33.765    5.1922
   33.900    5.0764
   34.035    4.6445
   34.170    4.8657
   34.305    5.0026
   34.440    5.0342
   34.575    4.8973
   34.710    4.5182
   34.845    4.6656
   34.980    4.8447
   35.115    4.8341
   35.250    5.1817
   35.385    5.2870
   35.520    4.7709
   35.655    4.5603
   35.790    4.8447
   35.925    4.9816
   36.060    4.7604
   36.195    4.6551
   36.330    4.3391
   36.465    4.3918
   36.600    4.6445
   36.735    4.6024
   36.870    4.7077
   37.005    4.5603
   37.140    4.8973
   37.275    4.8552
   37.410    4.5392
   37.545    4.5287
   37.680    4.8236
   37.815    4.9289
   37.950    4.3497
   38.085    4.5498
   38.220    4.6761
   38.355    4.3075
   38.490    4.5076
   38.625    4.0232
   38.760    4.5182
   38.895    4.3707
   39.030    4.4971
   39.165    4.6445
   39.300    4.5076
   39.435    4.8973
   39.570    4.1706
   39.705    4.4339
   39.840    4.3286
   39.975    4.0337
   39.990    4.1601