File: data/PXRD/PXRD_KE-309-2_Cu-Ka1_capillary-1mm_3s-deg.xyd
    1.500   32.7892
    1.665   29.3488
    1.830   25.2414
    1.995   22.3802
    2.160   20.6073
    2.325   19.6595
    2.490   19.0276
    2.655   18.5887
    2.820   20.7829
    2.985   22.3626
    3.150   26.7334
    3.315   33.0700
    3.480   45.7434
    3.645   72.0906
    3.810  180.1124
    3.975   13.9196
    4.140    9.0574
    4.305    8.3202
    4.470    8.4957
    4.635    8.8819
    4.800    9.0047
    4.965   10.4441
    5.130   12.8313
    5.295   19.3962
    5.460   52.9577
    5.625    7.7234
    5.790    7.0563
    5.955    6.9686
    6.120    6.6351
    6.285    6.4595
    6.450    7.3021
    6.615    8.8994
    6.780    8.2675
    6.945    6.4244
    7.110    6.2489
    7.275    5.8101
    7.440    6.5649
    7.605    8.6010
    7.770   17.4127
    7.935    6.4771
    8.100    5.6697
    8.265    5.7223
    8.430    5.7399
    8.595    5.8803
    8.760    6.1962
    8.925    6.2840
    9.090    6.1260
    9.255    7.8989
    9.420   11.6202
    9.585   13.9898
    9.750    5.4941
    9.915    5.9329
   10.080    6.1260
   10.245    8.7590
   10.410    5.4941
   10.575    5.3361
   10.740    5.8803
   10.905    6.5122
   11.070    8.7765
   11.235    5.2659
   11.400    5.4766
   11.565    6.4069
   11.730    9.9351
   11.895    4.7042
   12.060    4.9851
   12.225    5.2308
   12.390    4.9851
   12.555    4.8447
   12.720    5.2659
   12.885    7.6883
   13.050    5.5468
   13.215    5.0553
   13.380    5.3361
   13.545    7.3547
   13.710    4.7920
   13.875    5.3186
   14.040    7.0037
   14.205    4.9851
   14.370    5.0728
   14.535    4.8095
   14.700    4.5463
   14.865    4.8973
   15.030    4.9324
   15.195    5.4415
   15.360    4.5287
   15.525    5.0202
   15.690    5.1431
   15.855    4.4058
   16.020    5.3186
   16.185    5.5292
   16.350    4.5989
   16.515    4.6867
   16.680    5.0202
   16.845    5.0553
   17.010    6.3718
   17.175    5.2835
   17.340    4.6691
   17.505    5.0904
   17.670    4.8095
   17.835    4.8798
   18.000    5.4766
   18.165    4.7218
   18.330    5.5994
   18.495    4.4936
   18.660    4.9851
   18.825    5.4941
   18.990    5.3186
   19.155    5.0553
   19.320    4.7042
   19.485    4.6340
   19.650    5.4590
   19.815    4.6867
   19.980    4.7393
   20.145    4.9500
   20.310    5.8627
   20.475    5.5468
   20.640    4.8447
   20.805    4.8095
   20.970    5.1431
   21.135    4.5638
   21.300    4.9149
   21.465    4.8271
   21.630    4.4058
   21.795    5.3361
   21.960    5.2835
   22.125    4.6691
   22.290    5.1255
   22.455    5.1782
   22.620    6.8633
   22.785    5.2133
   22.950    7.3021
   23.115    4.8447
   23.280    5.6697
   23.445    5.3010
   23.610    5.0728
   23.775    4.5814
   23.940    5.3186
   24.105    4.7042
   24.270    5.3186
   24.435    4.5463
   24.600    4.7569
   24.765    5.0377
   24.930    4.8271
   25.095    4.7744
   25.260    4.6867
   25.425    4.7569
   25.590    5.4590
   25.755    5.2484
   25.920    5.6170
   26.085    4.3883
   26.250    4.3181
   26.415    5.1606
   26.580    4.4058
   26.745    4.3532
   26.910    4.5287
   27.075    5.7048
   27.240    4.3532
   27.405    3.9670
   27.570    4.9149
   27.735    4.5814
   27.900    4.5111
   28.065    4.3181
   28.230    4.8271
   28.395    4.6516
   28.560    4.4760
   28.725    4.3356
   28.890    4.6165
   29.055    4.3356
   29.220    4.5111
   29.385    4.7042
   29.550    4.2478
   29.715    4.3707
   29.880    4.3005
   30.045    4.1074
   30.210    3.9670
   30.375    4.2127
   30.540    3.9143
   30.705    4.4936
   30.870    4.7393
   31.035    4.1074
   31.200    4.0372
   31.365    4.1952
   31.530    3.7915
   31.695    4.6165
   31.860    4.1952
   32.025    3.9494
   32.190    4.6867
   32.355    4.2654
   32.520    4.1250
   32.685    4.1952
   32.850    4.3005
   33.015    3.9846
   33.180    4.0372
   33.345    4.4058
   33.510    3.9670
   33.675    3.7915
   33.840    4.0197
   34.005    4.1074
   34.170    4.3707
   34.335    4.1776
   34.500    3.5984
   34.665    4.1250
   34.830    4.0021
   34.995    3.7739
   35.160    3.7564
   35.325    4.1601
   35.490    3.3877
   35.655    3.3702
   35.820    4.1074
   35.985    3.7213
   36.150    3.7213
   36.315    3.8441
   36.480    3.6159
   36.645    4.0021
   36.810    3.7388
   36.975    3.8266
   37.140    4.2127
   37.305    3.5106
   37.470    3.6335
   37.635    3.6510
   37.800    3.7213
   37.965    3.8617
   38.130    3.7213
   38.295    3.4229
   38.460    3.7213
   38.625    3.7564
   38.790    3.8441
   38.955    3.4053
   39.120    3.6686
   39.285    3.7037
   39.450    3.5808
   39.615    3.5808
   39.780    3.4229
   39.945    3.6159
   40.110    3.8090
   40.275    3.6335
   40.440    4.1601
   40.605    4.0021
   40.770    3.4755
   40.935    3.9143
   41.100    3.4755
   41.265    3.4580
   41.430    3.6510
   41.595    3.5106
   41.760    3.3877
   41.925    3.3702
   42.090    3.7915
   42.255    3.4053
   42.420    3.7213
   42.585    3.5457
   42.750    3.6335
   42.915    3.6510
   43.080    3.4931
   43.245    3.6510
   43.410    3.6335
   43.575    3.3877
   43.740    3.5633
   43.905    3.7564
   44.070    3.8441
   44.235    3.3702
   44.400    3.5106
   44.565    3.5282
   44.730    3.5808
   44.895    3.6686
   45.060    3.3351
   45.225    4.1074
   45.390    4.0372
   45.555    3.7739
   45.720    3.4053
   45.885    3.5808
   46.050    3.5457
   46.215    3.7739
   46.380    3.4229
   46.545    3.5457
   46.710    3.7213
   46.875    3.3702
   47.040    3.5457
   47.205    3.1596
   47.370    3.5457
   47.535    3.3351
   47.700    3.5808
   47.865    3.5808
   48.030    3.4229
   48.195    3.5633
   48.360    3.6862
   48.525    3.3702
   48.690    3.2824
   48.855    3.5282
   49.020    3.1947
   49.185    3.3175
   49.350    3.3526
   49.515    3.3351
   49.680    3.2298
   49.845    3.0016
   49.980    3.8090