File: data/PXRD/PXRD_KE-014_Cu-Ka1_capillary-1mm_5s-deg.xyd
    1.500   42.0748
    1.635   44.2970
    1.770   40.3265
    1.905   37.6830
    2.040   35.8294
    2.175   33.7020
    2.310   33.5334
    2.445   34.6604
    2.580   37.6725
    2.715   40.7162
    2.850   45.8241
    2.985   52.6172
    3.120   64.7815
    3.255   84.6235
    3.390  120.2422
    3.525  126.5929
    3.660   76.4718
    3.795   82.6646
    3.930   78.7362
    4.065   42.7172
    4.200   22.8857
    4.335   16.8404
    4.470   14.9026
    4.605   12.7962
    4.740   12.1011
    4.875   11.9326
    5.010   12.1748
    5.145   11.6482
    5.280   11.2691
    5.415   10.8899
    5.550   11.1743
    5.685   10.5319
    5.820   10.0895
    5.955   10.2896
    6.090   10.4476
    6.225   10.7425
    6.360   11.3849
    6.495   12.5329
    6.630   13.8705
    6.765   16.7457
    6.900   23.8231
    7.035   22.8436
    7.170   13.7546
    7.305   12.1538
    7.440   12.9647
    7.575   15.3133
    7.710   19.4207
    7.845   21.1164
    7.980   17.5355
    8.115   12.8594
    8.250   11.5008
    8.385   10.4055
    8.520   10.2054
    8.655   10.0158
    8.790    9.6367
    8.925    9.6682
    9.060    9.1838
    9.195    9.2680
    9.330    9.7314
    9.465    9.2048
    9.600    9.6577
    9.735    9.2470
    9.870    9.7525
   10.005    9.9737
   10.140    9.5208
   10.275    9.4681
   10.410   10.1001
   10.545    9.7736
   10.680    8.8889
   10.815    9.4050
   10.950    9.7314
   11.085    9.1732
   11.220    9.5524
   11.355    9.9737
   11.490    9.5313
   11.625   10.1422
   11.760    9.8894
   11.895    9.9105
   12.030    9.9421
   12.165    9.0890
   12.300    8.8678
   12.435    9.4050
   12.570    9.5840
   12.705    9.1732
   12.840    8.9731
   12.975    9.2048
   13.110    9.3523
   13.245    9.2575
   13.380    9.1417
   13.515    8.8468
   13.650    8.5308
   13.785    8.9521
   13.920    8.4150
   14.055    8.5097
   14.190    8.6572
   14.325    8.8468
   14.460    8.6151
   14.595    8.7098
   14.730    8.8152
   14.865    8.5729
   15.000    8.7836
   15.135    8.6045
   15.270    8.9205
   15.405    8.7941
   15.540    8.8362
   15.675    9.4681
   15.810    9.1522
   15.945    8.7625
   16.080    8.6467
   16.215    8.8468
   16.350    8.6151
   16.485    8.4255
   16.620    8.7414
   16.755    8.9205
   16.890    8.1727
   17.025    8.6151
   17.160    8.5835
   17.295    8.8046
   17.430    8.5940
   17.565    9.2259
   17.700    8.6467
   17.835    8.9942
   17.970    8.6151
   18.105    8.5835
   18.240    8.6256
   18.375    8.4360
   18.510    8.6151
   18.645    8.4992
   18.780    9.2575
   18.915    8.9415
   19.050    8.7730
   19.185    8.8152
   19.320    9.1206
   19.455    8.7204
   19.590    9.3102
   19.725    9.1838
   19.860    9.2259
   19.995    9.4050
   20.130    9.2470
   20.265    9.5103
   20.400    9.6788
   20.535    9.6788
   20.670    9.7946
   20.805    9.2786
   20.940    9.4365
   21.075    9.8368
   21.210    9.8578
   21.345    9.4681
   21.480    9.6893
   21.615    9.3628
   21.750    9.2891
   21.885    9.1311
   22.020    9.5208
   22.155    9.8684
   22.290    9.0890
   22.425    9.6472
   22.560    9.6998
   22.695   10.3212
   22.830   10.0369
   22.965    9.8262
   23.100    9.3207
   23.235    9.7420
   23.370    9.3734
   23.505    9.4155
   23.640    9.3312
   23.775    9.3207
   23.910    9.1838
   24.045    9.2680
   24.180    8.9205
   24.315    9.3312
   24.450    9.1732
   24.585    9.0679
   24.720    9.3207
   24.855    9.2680
   24.990    8.8678
   25.125    9.1417
   25.260    8.9837
   25.395    8.5519
   25.530    8.4781
   25.665    8.6888
   25.800    8.4781
   25.935    8.3412
   26.070    8.7520
   26.205    8.4887
   26.340    8.6151
   26.475    8.4571
   26.610    8.0674
   26.745    8.4150
   26.880    8.2043
   27.015    8.2886
   27.150    8.1095
   27.285    8.0147
   27.420    8.0463
   27.555    8.0147
   27.690    7.9726
   27.825    7.9094
   27.960    7.9726
   28.095    8.2043
   28.230    8.1938
   28.365    7.7304
   28.500    7.9200
   28.635    7.8041
   28.770    7.7830
   28.905    7.7304
   29.040    7.3196
   29.175    7.4882
   29.310    7.4460
   29.445    7.8462
   29.580    7.6567
   29.715    7.2038
   29.850    7.3512
   29.985    7.0669
   30.120    7.5829
   30.255    7.2143
   30.390    7.4144
   30.525    7.6777
   30.660    7.6883
   30.795    7.3723
   30.930    7.0985
   31.065    7.1722
   31.200    7.0879
   31.335    7.1090
   31.470    7.2565
   31.605    7.5724
   31.740    7.4355
   31.875    7.3512
   32.010    7.2986
   32.145    7.6567
   32.280    7.0563
   32.415    7.5197
   32.550    7.1827
   32.685    7.5513
   32.820    6.8246
   32.955    7.0563
   33.090    6.8878
   33.225    6.8562
   33.360    7.1511
   33.495    6.9616
   33.630    7.2143
   33.765    7.0353
   33.900    6.5087
   34.035    7.1827
   34.170    6.7825
   34.305    6.6667
   34.440    7.0563
   34.575    6.6140
   34.710    6.7930
   34.845    6.8457
   34.980    6.7509
   35.115    7.1827
   35.250    6.9826
   35.385    6.6456
   35.520    6.5508
   35.655    6.7299
   35.790    6.9510
   35.925    6.4455
   36.060    6.4876
   36.195    6.5298
   36.330    6.4034
   36.465    6.4139
   36.600    7.0037
   36.735    6.3402
   36.870    6.8668
   37.005    6.4560
   37.140    6.9510
   37.275    6.4350
   37.410    6.1506
   37.545    6.7615
   37.680    6.4034
   37.815    6.4455
   37.950    6.3718
   38.085    6.3928
   38.220    6.3191
   38.355    6.6351
   38.490    6.4244
   38.625    6.2875
   38.760    6.5087
   38.895    6.5929
   39.030    6.5719
   39.165    6.6772
   39.300    6.6035
   39.435    6.5298
   39.570    6.3086
   39.705    6.5087
   39.840    6.1927
   39.975    6.2665
   39.990    6.2138