File: data/PXRD/PXRD_KE-312-2_Cu-Ka1_capillary-1mm_3s-deg.xyd
    1.500   11.7606
    1.635    9.7420
    1.770    9.3031
    1.905    8.7765
    2.040    7.8638
    2.175    7.4074
    2.310    7.1266
    2.445    7.6532
    2.580    7.2143
    2.715    7.2494
    2.850    7.8111
    2.985    7.5127
    3.120    8.4606
    3.255    9.7771
    3.390   11.4095
    3.525   13.7090
    3.660   19.0276
    3.795   34.5972
    3.930   12.8840
    4.065    6.9335
    4.200    6.6175
    4.335    6.0032
    4.470    6.1787
    4.605    6.0734
    4.740    6.0734
    4.875    6.5298
    5.010    6.3016
    5.145    6.8106
    5.280    6.9159
    5.415    8.7063
    5.550    6.2313
    5.685    5.7574
    5.820    5.6345
    5.955    5.2659
    6.090    5.4415
    6.225    5.4064
    6.360    5.5292
    6.495    5.7223
    6.630    6.0207
    6.765    6.3367
    6.900    6.5824
    7.035    5.7574
    7.170    6.2138
    7.305    5.8803
    7.440    6.2665
    7.575    6.5473
    7.710    7.3372
    7.845    6.3016
    7.980    6.3718
    8.115    6.0734
    8.250    6.3893
    8.385    6.5824
    8.520    6.5649
    8.655    6.6351
    8.790    6.3016
    8.925    7.0388
    9.060    6.4244
    9.195    6.4595
    9.330    7.0388
    9.465    8.4957
    9.600    8.0042
    9.735    6.6000
    9.870    7.0739
   10.005    6.6877
   10.140    6.8808
   10.275    8.1095
   10.410    6.6877
   10.545    7.0037
   10.680    6.6351
   10.815    6.5122
   10.950    7.4776
   11.085    6.8282
   11.220    6.3016
   11.355    6.6351
   11.490    6.3893
   11.625    7.3723
   11.760    6.5122
   11.895    5.9681
   12.030    6.6000
   12.165    6.1260
   12.300    6.4420
   12.435    6.0909
   12.570    5.6872
   12.705    5.6345
   12.840    5.7399
   12.975    6.0734
   13.110    6.4420
   13.245    5.0377
   13.380    5.8101
   13.515    5.9329
   13.650    5.9681
   13.785    5.4941
   13.920    5.5292
   14.055    6.1436
   14.190    5.4064
   14.325    5.2835
   14.460    5.5117
   14.595    5.6170
   14.730    5.6697
   14.865    5.5292
   15.000    6.0734
   15.135    6.1962
   15.270    5.2835
   15.405    5.6345
   15.540    6.0032
   15.675    5.5468
   15.810    5.8276
   15.945    5.6872
   16.080    5.7223
   16.215    5.8803
   16.350    5.4941
   16.485    6.0558
   16.620    5.8452
   16.755    6.0032
   16.890    5.7925
   17.025    6.5649
   17.160    5.8978
   17.295    6.3016
   17.430    5.8101
   17.565    5.9505
   17.700    5.9329
   17.835    5.8803
   17.970    6.2138
   18.105    6.1260
   18.240    5.9681
   18.375    6.0383
   18.510    6.0734
   18.645    5.8627
   18.780    5.8978
   18.915    6.0032
   19.050    5.9681
   19.185    6.0558
   19.320    6.1611
   19.455    5.7574
   19.590    6.0734
   19.725    6.3718
   19.860    6.2840
   19.995    5.9505
   20.130    6.1962
   20.265    6.3016
   20.400    6.0558
   20.535    6.3718
   20.670    6.0032
   20.805    5.4590
   20.940    5.9681
   21.075    5.8627
   21.210    5.8452
   21.345    6.2313
   21.480    5.8276
   21.615    6.4420
   21.750    6.1260
   21.885    6.5298
   22.020    6.1611
   22.155    6.4244
   22.290    6.2840
   22.425    6.1085
   22.560    6.8808
   22.695    6.3542
   22.830    6.2665
   22.965    6.3191
   23.100    6.2665
   23.235    6.0734
   23.370    5.8803
   23.505    6.3016
   23.640    6.5473
   23.775    6.3191
   23.910    5.5468
   24.045    6.2665
   24.180    5.8803
   24.315    6.3016
   24.450    6.1611
   24.585    6.2840
   24.720    6.2665
   24.855    5.7925
   24.990    6.0032
   25.125    5.5292
   25.260    5.8101
   25.395    5.7925
   25.530    6.5122
   25.665    5.8452
   25.800    6.0909
   25.935    5.9505
   26.070    5.7750
   26.205    5.8276
   26.340    5.4941
   26.475    5.7574
   26.610    6.0383
   26.745    5.6170
   26.880    5.7574
   27.015    6.1962
   27.150    6.1787
   27.285    5.8101
   27.420    5.3537
   27.555    5.5643
   27.690    5.2484
   27.825    5.4590
   27.960    6.2313
   28.095    5.7399
   28.230    5.4064
   28.365    5.8276
   28.500    5.1080
   28.635    6.0032
   28.770    5.3888
   28.905    5.9681
   29.040    5.5292
   29.175    5.7048
   29.310    5.8276
   29.445    5.3537
   29.580    5.2484
   29.715    5.7223
   29.850    5.3361
   29.985    5.5292
   30.120    5.0904
   30.255    5.2659
   30.390    5.6697
   30.525    5.2133
   30.660    4.8798
   30.795    5.1255
   30.930    5.2484
   31.065    5.2484
   31.200    4.9324
   31.335    5.2835
   31.470    5.4415
   31.605    5.3186
   31.740    5.5117
   31.875    4.6691
   32.010    5.2308
   32.145    5.2133
   32.280    5.0377
   32.415    4.9149
   32.550    4.9675
   32.685    4.7393
   32.820    4.9500
   32.955    5.0377
   33.090    5.2659
   33.225    4.7920
   33.360    4.9675
   33.495    5.1606
   33.630    5.1080
   33.765    5.0904
   33.900    5.0202
   34.035    5.3712
   34.170    5.2308
   34.305    4.5463
   34.440    4.7218
   34.575    4.9149
   34.710    5.0904
   34.845    4.6340
   34.980    4.8271
   35.115    4.5463
   35.250    5.0377
   35.385    5.0553
   35.520    4.5111
   35.655    5.3010
   35.790    4.6691
   35.925    4.7920
   36.060    4.2654
   36.195    5.1080
   36.330    5.1782
   36.465    4.5989
   36.600    4.8271
   36.735    4.7569
   36.870    4.8271
   37.005    4.7393
   37.140    4.7569
   37.275    4.8973
   37.410    4.2303
   37.545    4.5638
   37.680    5.1255
   37.815    4.5638
   37.950    4.5463
   38.085    4.9149
   38.220    4.5463
   38.355    4.7218
   38.490    4.5814
   38.625    4.4760
   38.760    4.6340
   38.895    4.7569
   39.030    4.5463
   39.165    4.5287
   39.300    4.7569
   39.435    4.8095
   39.570    4.6867
   39.705    4.7744
   39.840    4.5463
   39.975    4.7744
   39.990    4.7744