File: data/PXRD/PXRD_KE-309_Cu-Ka1_capillary-1mm_3s-deg.xyd
    1.500   10.0228
    1.635    8.7590
    1.770    8.1622
    1.905    7.1792
    2.040    6.8457
    2.175    6.6877
    2.310    5.9681
    2.445    6.0734
    2.580    5.7750
    2.715    5.5643
    2.850    5.9329
    2.985    6.1611
    3.120    8.1095
    3.255   10.4441
    3.390   15.8856
    3.525   27.6461
    3.660   51.1673
    3.795  142.1274
    3.930   19.8350
    4.065    4.9500
    4.200    4.8622
    4.335    4.4760
    4.470    4.3532
    4.605    4.3181
    4.740    4.2303
    4.875    3.9670
    5.010    4.9500
    5.145    5.5994
    5.280    9.4611
    5.415   26.2770
    5.550    7.2494
    5.685    3.8090
    5.820    3.6335
    5.955    3.3526
    6.090    3.2298
    6.225    3.5457
    6.360    3.4404
    6.495    4.3181
    6.630    5.8803
    6.765    5.6345
    6.900    3.3000
    7.035    3.1069
    7.170    2.7909
    7.305    3.0542
    7.440    3.5984
    7.575    4.1601
    7.710    8.5659
    7.845    4.3532
    7.980    3.0016
    8.115    3.0542
    8.250    2.9840
    8.385    3.0542
    8.520    2.9314
    8.655    3.4229
    8.790    2.8436
    8.925    2.8787
    9.060    3.3000
    9.195    2.8612
    9.330    3.4931
    9.465   10.2510
    9.600    6.1260
    9.735    2.7909
    9.870    2.5979
   10.005    3.0718
   10.140    3.4053
   10.275    7.0212
   10.410    2.9314
   10.545    2.9138
   10.680    2.7207
   10.815    3.0016
   10.950    5.3537
   11.085    4.3883
   11.220    2.6856
   11.355    2.7207
   11.490    3.2824
   11.625    4.8973
   11.760    4.4585
   11.895    2.4574
   12.030    2.8085
   12.165    2.7207
   12.300    3.7739
   12.435    2.4574
   12.570    2.8436
   12.705    2.7032
   12.840    3.5633
   12.975    5.5994
   13.110    2.6681
   13.245    2.8436
   13.380    2.9314
   13.515    4.5111
   13.650    2.7207
   13.785    2.9489
   13.920    2.4399
   14.055    5.3361
   14.190    2.7734
   14.325    2.7909
   14.460    2.7734
   14.595    2.7032
   14.730    2.6856
   14.865    2.5276
   15.000    2.3170
   15.135    2.9665
   15.270    2.7734
   15.405    2.7558
   15.540    2.5628
   15.675    2.6154
   15.810    2.4750
   15.945    2.4750
   16.080    3.1947
   16.215    2.6681
   16.350    2.7734
   16.485    3.1771
   16.620    3.2649
   16.755    2.4750
   16.890    2.6154
   17.025    4.8622
   17.160    3.0191
   17.295    2.5276
   17.430    3.1420
   17.565    2.8436
   17.700    2.4750
   17.835    2.6154
   17.970    3.2298
   18.105    2.5276
   18.240    2.9314
   18.375    3.5457
   18.510    2.9314
   18.645    2.7032
   18.780    3.2824
   18.915    2.8085
   19.050    2.5452
   19.185    2.3521
   19.320    2.5803
   19.455    2.3346
   19.590    3.4755
   19.725    2.5803
   19.860    2.8085
   19.995    2.6505
   20.130    2.7909
   20.265    2.8612
   20.400    4.8271
   20.535    2.6681
   20.670    2.5276
   20.805    3.1420
   20.940    2.6505
   21.075    2.7207
   21.210    2.4048
   21.345    2.5276
   21.480    2.6330
   21.615    2.8260
   21.750    2.4750
   21.885    3.5633
   22.020    2.8963
   22.155    2.8787
   22.290    2.9489
   22.425    2.6856
   22.560    4.9675
   22.695    2.9314
   22.830    3.2298
   22.965    4.4409
   23.100    2.5452
   23.235    3.4755
   23.370    2.5628
   23.505    2.9489
   23.640    3.0893
   23.775    2.4399
   23.910    3.2824
   24.045    2.4925
   24.180    2.8963
   24.315    2.8085
   24.450    2.5276
   24.585    2.8085
   24.720    2.6154
   24.855    2.7383
   24.990    2.5452
   25.125    3.0191
   25.260    2.8787
   25.395    2.4925
   25.530    2.7207
   25.665    2.9138
   25.800    4.3883
   25.935    2.7207
   26.070    2.7032
   26.205    2.6681
   26.340    2.5803
   26.475    2.8787
   26.610    2.7558
   26.745    2.5628
   26.880    2.1941
   27.015    3.2122
   27.150    2.9840
   27.285    2.4750
   27.420    2.4750
   27.555    2.6154
   27.690    2.6681
   27.825    2.6856
   27.960    2.5979
   28.095    2.7909
   28.230    2.8963
   28.365    2.5803
   28.500    3.5106
   28.635    2.1766
   28.770    2.4048
   28.905    2.4925
   29.040    2.6505
   29.175    2.2643
   29.310    3.0893
   29.445    2.6154
   29.580    2.4925
   29.715    2.4750
   29.850    2.6681
   29.985    2.0713
   30.120    2.5803
   30.255    2.7383
   30.390    2.2643
   30.525    2.3346
   30.660    2.4223
   30.795    2.5979
   30.930    2.1239
   31.065    2.2819
   31.200    2.0186
   31.335    2.4399
   31.470    2.4048
   31.605    2.4750
   31.740    2.3346
   31.875    2.0186
   32.010    2.1064
   32.145    2.2117
   32.280    2.2117
   32.415    2.1064
   32.550    2.4750
   32.685    2.0011
   32.820    2.4048
   32.955    2.5276
   33.090    2.3170
   33.225    2.1064
   33.360    2.0888
   33.495    2.3170
   33.630    2.0713
   33.765    2.4048
   33.900    2.5979
   34.035    2.0186
   34.170    2.3346
   34.305    2.2819
   34.440    2.1590
   34.575    2.1064
   34.710    2.1239
   34.845    2.1239
   34.980    1.6675
   35.115    2.0186
   35.250    1.9308
   35.385    1.8431
   35.520    1.9133
   35.655    2.0888
   35.790    2.3346
   35.925    2.0011
   36.060    1.9659
   36.195    1.9133
   36.330    1.7729
   36.465    2.1064
   36.600    1.9133
   36.735    2.2292
   36.870    2.0186
   37.005    1.7378
   37.140    2.1766
   37.275    2.0713
   37.410    1.7202
   37.545    1.9133
   37.680    1.8255
   37.815    2.0186
   37.950    2.0362
   38.085    1.8431
   38.220    2.0011
   38.355    2.2292
   38.490    1.7904
   38.625    2.0362
   38.760    1.8957
   38.895    1.8080
   39.030    1.7729
   39.165    1.7904
   39.300    1.7729
   39.435    1.9308
   39.570    1.9308
   39.705    1.8080
   39.840    1.9133
   39.975    2.0186
   39.990    2.0362