File: data/PXRD/PXRD_KE-310_Cu-Ka1_capillary-1mm_3s-deg.xyd
    1.500    5.7925
    1.635    5.1957
    1.770    4.6867
    1.905    4.1425
    2.040    3.7915
    2.175    4.0548
    2.310    3.7213
    2.445    3.6335
    2.580    3.6510
    2.715    3.6335
    2.850    3.8090
    2.985    3.7037
    3.120    4.5287
    3.255    5.8452
    3.390    8.3377
    3.525   13.2877
    3.660   25.0132
    3.795   67.1582
    3.930   11.0233
    4.065    3.0718
    4.200    3.0367
    4.335    2.7909
    4.470    2.8787
    4.605    2.3521
    4.740    2.5803
    4.875    2.3346
    5.010    2.6681
    5.145    3.8617
    5.280    6.6175
    5.415   17.7462
    5.550    4.5287
    5.685    2.5276
    5.820    2.5979
    5.955    2.4574
    6.090    2.1064
    6.225    2.2643
    6.360    2.1766
    6.495    2.4574
    6.630    4.8798
    6.765    4.2654
    6.900    2.3521
    7.035    2.1415
    7.170    2.2643
    7.305    2.1415
    7.440    2.4223
    7.575    2.7383
    7.710    5.8101
    7.845    3.0718
    7.980    2.1766
    8.115    2.1590
    8.250    1.9133
    8.385    2.0537
    8.520    2.2819
    8.655    2.5276
    8.790    2.1590
    8.925    2.1239
    9.060    2.2819
    9.195    2.1415
    9.330    2.7032
    9.465    6.5824
    9.600    3.6510
    9.735    2.0011
    9.870    2.1766
   10.005    2.0362
   10.140    2.4399
   10.275    4.4058
   10.410    2.0537
   10.545    2.2292
   10.680    2.1590
   10.815    2.0713
   10.950    3.1771
   11.085    2.8260
   11.220    2.2819
   11.355    1.8606
   11.490    2.0362
   11.625    3.2298
   11.760    3.0016
   11.895    2.0186
   12.030    1.9484
   12.165    2.1590
   12.300    2.5803
   12.435    1.8255
   12.570    1.9835
   12.705    2.0888
   12.840    2.1766
   12.975    3.5808
   13.110    1.8606
   13.245    1.7553
   13.380    1.8606
   13.515    2.5276
   13.650    1.8431
   13.785    2.1590
   13.920    1.8080
   14.055    3.3526
   14.190    1.8255
   14.325    1.8255
   14.460    1.8431
   14.595    1.8957
   14.730    1.7553
   14.865    2.1064
   15.000    2.0888
   15.135    2.3697
   15.270    1.8255
   15.405    1.8255
   15.540    1.7729
   15.675    2.0537
   15.810    1.9308
   15.945    1.8431
   16.080    2.4399
   16.215    1.9484
   16.350    2.1064
   16.485    1.9308
   16.620    2.3521
   16.755    2.1415
   16.890    1.9133
   17.025    3.4404
   17.160    1.9659
   17.295    1.9835
   17.430    2.0537
   17.565    2.0362
   17.700    1.6324
   17.835    1.8957
   17.970    2.0713
   18.105    1.9308
   18.240    2.0186
   18.375    2.2819
   18.510    1.9835
   18.645    1.8606
   18.780    2.1766
   18.915    1.9308
   19.050    1.9308
   19.185    1.9308
   19.320    2.1239
   19.455    2.0186
   19.590    2.3521
   19.725    2.1064
   19.860    2.0011
   19.995    2.0713
   20.130    2.0011
   20.265    2.2117
   20.400    2.8787
   20.535    1.9484
   20.670    1.7729
   20.805    2.0362
   20.940    2.0537
   21.075    1.9308
   21.210    2.1064
   21.345    1.9835
   21.480    2.1766
   21.615    1.7553
   21.750    2.0713
   21.885    2.5979
   22.020    2.0537
   22.155    2.1590
   22.290    2.2643
   22.425    2.1064
   22.560    3.0367
   22.695    2.2819
   22.830    2.7558
   22.965    2.7734
   23.100    2.2117
   23.235    2.4048
   23.370    2.0888
   23.505    1.9133
   23.640    2.1766
   23.775    2.0362
   23.910    2.2819
   24.045    2.0186
   24.180    2.1239
   24.315    1.9133
   24.450    2.0537
   24.585    2.2995
   24.720    1.8957
   24.855    1.9835
   24.990    2.1239
   25.125    2.0713
   25.260    2.0713
   25.395    2.0362
   25.530    2.0537
   25.665    1.7202
   25.800    2.7734
   25.935    2.1064
   26.070    1.8782
   26.205    2.0186
   26.340    2.0011
   26.475    2.1766
   26.610    2.1064
   26.745    1.8782
   26.880    2.0011
   27.015    2.4399
   27.150    1.8255
   27.285    1.9659
   27.420    1.8255
   27.555    1.7729
   27.690    1.7378
   27.825    1.8080
   27.960    1.9133
   28.095    2.1941
   28.230    2.0713
   28.365    2.0888
   28.500    2.2819
   28.635    1.6500
   28.770    2.1064
   28.905    1.9659
   29.040    1.9308
   29.175    1.6851
   29.310    2.1766
   29.445    1.9835
   29.580    1.7729
   29.715    1.6675
   29.850    1.8431
   29.985    1.7904
   30.120    1.7904
   30.255    1.7729
   30.390    1.7202
   30.525    1.7729
   30.660    1.8431
   30.795    1.6149
   30.930    1.5798
   31.065    1.5447
   31.200    1.5973
   31.335    1.6500
   31.470    1.7027
   31.605    1.7027
   31.740    1.9484
   31.875    1.6149
   32.010    1.5447
   32.145    1.7378
   32.280    1.5622
   32.415    1.6324
   32.550    1.7553
   32.685    1.7027
   32.820    1.6500
   32.955    1.7729
   33.090    1.5096
   33.225    1.6500
   33.360    1.6675
   33.495    1.1761
   33.630    1.5622
   33.765    1.7378
   33.900    1.7904
   34.035    1.4218
   34.170    1.3340
   34.305    1.3691
   34.440    1.4042
   34.575    1.4920
   34.710    1.4920
   34.845    1.8080
   34.980    1.4042
   35.115    1.5096
   35.250    1.3691
   35.385    1.3867
   35.520    1.5447
   35.655    1.5973
   35.790    1.5798
   35.925    1.2638
   36.060    1.5798
   36.195    1.4569
   36.330    1.4569
   36.465    1.1585
   36.600    1.3691
   36.735    1.4745
   36.870    1.2463
   37.005    1.3165
   37.140    1.4218
   37.275    1.2638
   37.410    1.2287
   37.545    1.3165
   37.680    1.2638
   37.815    1.3340
   37.950    1.2989
   38.085    1.3516
   38.220    1.4920
   38.355    1.2287
   38.490    1.0356
   38.625    1.0707
   38.760    1.2638
   38.895    1.1058
   39.030    1.2463
   39.165    1.3516
   39.300    1.4394
   39.435    1.1234
   39.570    1.2814
   39.705    1.4042
   39.840    1.2638
   39.975    1.3340
   39.990    1.1058