File: data/PXRD/PXRD_KE-260_Co-Ka1_film-3mm_3s-deg.xyd
    1.500    4.4765
    1.635    3.6561
    1.770    3.3530
    1.905    3.3886
    2.040    2.8357
    2.175    2.6039
    2.310    2.2829
    2.445    1.9440
    2.580    2.1937
    2.715    2.0332
    2.850    2.1223
    2.985    1.9262
    3.120    1.6765
    3.255    1.8905
    3.390    2.0688
    3.525    2.4077
    3.660    2.4434
    3.795    3.5313
    3.930    5.7250
    4.065    8.8818
    4.200    3.4243
    4.335    2.8001
    4.470    2.8357
    4.605    3.7988
    4.740    3.7275
    4.875    3.2281
    5.010    2.6396
    5.145    2.2829
    5.280    2.0510
    5.415    1.9083
    5.550    1.4981
    5.685    1.4803
    5.820    1.6408
    5.955    1.9797
    6.090    1.7478
    6.225    1.8548
    6.360    1.9975
    6.495    2.0510
    6.630    1.8548
    6.765    1.8370
    6.900    1.4625
    7.035    1.3911
    7.170    1.4803
    7.305    1.5695
    7.440    1.4268
    7.575    1.6408
    7.710    1.5873
    7.845    1.2484
    7.980    1.4981
    8.115    1.6943
    8.250    1.5338
    8.385    1.2663
    8.520    1.3198
    8.655    0.9631
    8.790    1.1771
    8.925    1.2484
    9.060    1.1236
    9.195    1.0701
    9.330    1.3376
    9.465    1.1414
    9.600    1.1593
    9.735    1.0166
    9.870    1.0344
   10.005    0.7312
   10.140    0.9274
   10.275    1.0879
   10.410    0.9452
   10.545    0.8917
   10.680    0.8917
   10.815    0.9631
   10.950    0.7312
   11.085    0.7847
   11.220    0.9809
   11.355    0.8026
   11.490    0.8917
   11.625    0.7491
   11.760    0.8561
   11.895    0.8382
   12.030    0.8204
   12.165    0.7669
   12.300    0.7847
   12.435    0.9452
   12.570    0.8382
   12.705    0.7312
   12.840    0.6956
   12.975    0.9274
   13.110    0.6777
   13.245    1.0166
   13.380    0.9809
   13.515    0.9988
   13.650    0.7312
   13.785    0.8561
   13.920    0.8026
   14.055    0.8917
   14.190    0.8561
   14.325    0.9452
   14.460    0.8382
   14.595    0.8561
   14.730    0.6956
   14.865    0.9096
   15.000    0.8561
   15.135    0.8382
   15.270    0.8026
   15.405    0.8561
   15.540    0.8917
   15.675    0.6421
   15.810    0.8204
   15.945    0.6064
   16.080    0.9096
   16.215    0.8739
   16.350    0.8739
   16.485    0.8739
   16.620    0.9631
   16.755    0.7847
   16.890    1.0701
   17.025    0.8382
   17.160    0.7491
   17.295    1.0879
   17.430    0.8561
   17.565    0.6421
   17.700    0.7491
   17.835    0.8204
   17.970    0.6599
   18.105    0.7491
   18.240    0.8026
   18.375    0.9096
   18.510    0.9274
   18.645    0.7847
   18.780    0.8382
   18.915    0.8561
   19.050    0.8204
   19.185    0.8561
   19.320    0.6956
   19.455    0.8561
   19.590    0.7491
   19.725    0.6064
   19.860    0.8382
   19.995    0.8739
   20.130    0.8382
   20.265    0.8561
   20.400    0.6242
   20.535    0.8204
   20.670    0.7847
   20.805    0.7669
   20.940    0.6956
   21.075    0.7847
   21.210    0.7847
   21.345    0.6777
   21.480    0.6777
   21.615    0.9096
   21.750    0.7669
   21.885    0.8026
   22.020    0.8561
   22.155    0.7134
   22.290    0.6242
   22.425    0.7669
   22.560    0.7847
   22.695    0.7669
   22.830    0.6599
   22.965    0.6064
   23.100    0.7847
   23.235    0.7491
   23.370    0.6777
   23.505    0.6064
   23.640    0.5350
   23.775    0.5529
   23.910    0.7312
   24.045    0.7491
   24.180    0.6956
   24.315    0.7134
   24.450    0.6777
   24.585    0.6064
   24.720    0.7669
   24.855    0.7669
   24.990    0.7134
   25.125    0.7491
   25.260    0.6599
   25.395    0.5886
   25.530    0.6421
   25.665    0.7312
   25.800    0.5707
   25.935    0.6599
   26.070    0.5529
   26.205    0.6956
   26.340    0.5886
   26.475    0.5172
   26.610    0.7134
   26.745    0.6064
   26.880    0.5172
   27.015    0.5529
   27.150    0.7312
   27.285    0.6777
   27.420    0.4280
   27.555    0.5529
   27.690    0.6956
   27.825    0.6064
   27.960    0.5707
   28.095    0.4280
   28.230    0.6064
   28.365    0.5172
   28.500    0.4280
   28.635    0.5707
   28.770    0.3924
   28.905    0.5529
   29.040    0.6064
   29.175    0.6064
   29.310    0.5172
   29.445    0.4102
   29.580    0.5707
   29.715    0.6956
   29.850    0.5529
   29.985    0.6599
   30.120    0.4637
   30.255    0.4815
   30.390    0.4280
   30.525    0.4280
   30.660    0.4637
   30.795    0.5529
   30.930    0.4280
   31.065    0.4815
   31.200    0.4459
   31.335    0.4102
   31.470    0.5886
   31.605    0.5350
   31.740    0.4280
   31.875    0.4994
   32.010    0.4994
   32.145    0.3924
   32.280    0.4637
   32.415    0.4637
   32.550    0.3567
   32.685    0.3567
   32.820    0.6599
   32.955    0.4994
   33.090    0.4280
   33.225    0.3567
   33.360    0.4102
   33.495    0.4994
   33.630    0.4280
   33.765    0.4637
   33.900    0.3745
   34.035    0.3389
   34.170    0.3745
   34.305    0.3924
   34.440    0.3745
   34.575    0.3210
   34.710    0.3389
   34.845    0.4815
   34.980    0.4102
   35.115    0.2497
   35.250    0.3924
   35.385    0.3389
   35.520    0.3389
   35.655    0.3924
   35.790    0.2675
   35.925    0.2675
   36.060    0.3389
   36.195    0.3924
   36.330    0.2497
   36.465    0.2497
   36.600    0.3210
   36.735    0.1605
   36.870    0.3745
   37.005    0.3567
   37.140    0.2854
   37.275    0.2497
   37.410    0.3389
   37.545    0.2675
   37.680    0.3032
   37.815    0.3210
   37.950    0.3745
   38.085    0.2497
   38.220    0.2319
   38.355    0.1783
   38.490    0.3210
   38.625    0.2854
   38.760    0.2854
   38.895    0.3032
   39.030    0.2140
   39.165    0.3210
   39.300    0.1783
   39.435    0.2675
   39.570    0.1962
   39.705    0.2854
   39.840    0.2854
   39.975    0.2319
   39.990    0.2497