File: data/PXRD/PXRD_KE-060_Cu-Ka1_capillary-1mm_5s-deg.xyd
    1.500   27.7409
    1.635   24.9078
    1.770   22.6330
    1.905   21.1690
    2.040   19.8842
    2.175   19.0943
    2.310   19.1048
    2.445   18.1043
    2.580   18.3254
    2.715   19.4734
    2.850   20.9268
    2.985   22.9805
    3.120   26.7088
    3.255   32.7330
    3.390   39.1259
    3.525   52.6593
    3.660   73.9442
    3.795  122.7699
    3.930  213.0701
    4.065   14.6603
    4.200   10.7741
    4.335    9.4892
    4.470    9.8368
    4.605    9.8262
    4.740   10.3739
    4.875   11.8062
    5.010   14.2391
    5.145   17.4724
    5.280   25.4134
    5.415   43.7283
    5.550   73.1964
    5.685    9.7314
    5.820    8.1517
    5.955    7.8462
    6.090    8.1411
    6.225    8.4044
    6.360    8.8046
    6.495   11.0585
    6.630   14.5761
    6.765   26.7299
    6.900    8.6677
    7.035    7.8673
    7.170    7.3407
    7.305    8.0990
    7.440    8.2780
    7.575    9.6261
    7.710   13.6072
    7.845   20.2528
    7.980    7.5619
    8.115    6.9721
    8.250    7.1617
    8.385    7.2459
    8.520    7.2459
    8.655    8.1833
    8.790    9.0890
    8.925    7.1933
    9.060    7.5829
    9.195    8.7520
    9.330   11.2902
    9.465   18.0727
    9.600   33.9547
    9.735    7.7304
    9.870    7.4882
   10.005    7.6251
   10.140    8.9731
   10.275   11.5534
   10.410   11.9958
   10.545    6.7825
   10.680    6.7299
   10.815    7.3723
   10.950   10.3423
   11.085   15.7978
   11.220    6.6983
   11.355    6.8562
   11.490    7.8884
   11.625   10.1106
   11.760   16.4929
   11.895    7.1301
   12.030    6.6877
   12.165    6.5824
   12.300    7.1406
   12.435    7.2143
   12.570    6.5087
   12.705    6.5087
   12.840    8.7625
   12.975   12.5434
   13.110    7.0037
   13.245    6.4244
   13.380    6.4982
   13.515    7.5303
   13.650    6.8984
   13.785    6.4455
   13.920    6.9932
   14.055    9.5735
   14.190    8.8362
   14.325    6.2243
   14.460    6.0242
   14.595    5.9926
   14.730    5.9716
   14.865    6.3823
   15.000    6.0874
   15.135    7.1827
   15.270    6.6561
   15.405    5.8978
   15.540    6.4455
   15.675    5.9821
   15.810    6.0032
   15.945    6.1506
   16.080    6.5719
   16.215    7.2986
   16.350    6.8668
   16.485    6.4876
   16.620    7.3828
   16.755    6.3507
   16.890    6.7299
   17.025    8.8046
   17.160    8.8468
   17.295    6.4771
   17.430    6.3928
   17.565    6.9932
   17.700    6.1295
   17.835    6.1717
   17.970    6.7299
   18.105    6.4666
   18.240    6.5613
   18.375    7.1195
   18.510    6.3086
   18.645    6.4350
   18.780    6.5298
   18.915    6.4350
   19.050    6.4982
   19.185    6.2981
   19.320    6.6561
   19.455    6.2033
   19.590    7.4671
   19.725    6.5087
   19.860    6.7509
   19.995    6.2243
   20.130    6.8878
   20.265    6.7825
   20.400    8.8152
   20.535    6.7299
   20.670    6.5192
   20.805    5.9716
   20.940    6.2033
   21.075    6.1822
   21.210    6.3191
   21.345    6.4034
   21.480    6.0453
   21.615    6.2033
   21.750    6.7720
   21.885    7.5829
   22.020    6.7088
   22.155    6.9405
   22.290    6.9089
   22.425    7.1195
   22.560    9.1943
   22.695    7.9516
   22.830    7.7830
   22.965    9.4787
   23.100    6.7930
   23.235    7.2880
   23.370    7.0985
   23.505    6.2770
   23.640    6.1401
   23.775    6.4876
   23.910    6.4982
   24.045    6.8457
   24.180    6.5192
   24.315    6.2138
   24.450    6.3296
   24.585    6.1085
   24.720    6.3612
   24.855    6.2138
   24.990    6.1506
   25.125    6.3086
   25.260    6.2665
   25.395    6.2981
   25.530    6.4666
   25.665    6.3823
   25.800    7.8568
   25.935    7.2249
   26.070    6.1506
   26.205    6.2138
   26.340    6.2665
   26.475    6.9932
   26.610    6.0558
   26.745    5.8662
   26.880    6.0664
   27.015    6.9405
   27.150    5.8241
   27.285    5.8978
   27.420    5.8978
   27.555    6.3507
   27.690    5.9821
   27.825    6.0032
   27.960    6.1295
   28.095    6.6140
   28.230    6.4982
   28.365    6.2349
   28.500    6.3823
   28.635    5.5924
   28.770    5.9505
   28.905    5.8136
   29.040    6.0664
   29.175    5.7188
   29.310    6.4666
   29.445    6.1190
   29.580    5.6977
   29.715    5.7399
   29.850    6.0558
   29.985    5.6451
   30.120    5.9084
   30.255    5.6345
   30.390    5.8768
   30.525    5.8452
   30.660    5.6661
   30.795    5.7188
   30.930    5.5503
   31.065    5.4239
   31.200    5.6977
   31.335    5.5082
   31.470    5.6135
   31.605    5.5819
   31.740    5.4134
   31.875    5.6661
   32.010    5.8241
   32.145    5.9926
   32.280    5.5608
   32.415    5.3712
   32.550    5.1290
   32.685    5.4134
   32.820    5.7399
   32.955    5.5924
   33.090    5.3607
   33.225    5.3712
   33.360    5.0342
   33.495    4.9184
   33.630    5.3291
   33.765    5.6240
   33.900    6.0453
   34.035    5.2238
   34.170    5.7715
   34.305    5.1290
   34.440    5.2449
   34.575    5.1185
   34.710    4.9921
   34.845    5.3081
   34.980    5.4028
   35.115    5.0448
   35.250    5.0237
   35.385    4.8868
   35.520    4.5708
   35.655    5.1395
   35.790    4.9710
   35.925    5.0869
   36.060    4.4655
   36.195    4.9289
   36.330    4.4655
   36.465    4.9289
   36.600    5.0342
   36.735    5.0764
   36.870    4.9500
   37.005    4.8763
   37.140    5.3818
   37.275    4.7709
   37.410    4.8868
   37.545    4.7288
   37.680    4.9184
   37.815    4.8552
   37.950    4.7815
   38.085    4.7920
   38.220    4.7183
   38.355    4.8131
   38.490    4.6235
   38.625    4.5708
   38.760    4.7183
   38.895    4.6761
   39.030    4.8025
   39.165    4.8868
   39.300    4.9289
   39.435    4.7183
   39.570    4.5498
   39.705    4.8025
   39.840    4.7393
   39.975    4.5919
   39.990    4.6024