File: data/PXRD/PXRD_Blank_Cu-Ka1_capillary-1mm_5s-deg.xyd
    1.500    1.5587
    1.635    1.4429
    1.770    1.9273
    1.905    1.9695
    2.040    2.2749
    2.175    2.2959
    2.310    2.2749
    2.445    2.6856
    2.580    2.5803
    2.715    2.6646
    2.850    2.5698
    2.985    2.5276
    3.120    2.5592
    3.255    2.9173
    3.390    2.9279
    3.525    3.0753
    3.660    2.7383
    3.795    2.8541
    3.930    2.9700
    4.065    2.9068
    4.200    3.0332
    4.335    2.9805
    4.470    3.0016
    4.605    3.0332
    4.740    3.1806
    4.875    3.0332
    5.010    3.0858
    5.145    3.0648
    5.280    3.0858
    5.415    3.1280
    5.550    3.1069
    5.685    3.1490
    5.820    3.1912
    5.955    3.3070
    6.090    3.0542
    6.225    3.1069
    6.360    3.2859
    6.495    3.0542
    6.630    3.2649
    6.765    3.4018
    6.900    3.4860
    7.035    3.3807
    7.170    3.3281
    7.305    3.1490
    7.440    3.0226
    7.575    3.1596
    7.710    3.2965
    7.845    3.0542
    7.980    3.1069
    8.115    3.1912
    8.250    3.2438
    8.385    3.2859
    8.520    3.1596
    8.655    2.9489
    8.790    3.1596
    8.925    2.8436
    9.060    3.0964
    9.195    2.9805
    9.330    3.1490
    9.465    3.1385
    9.600    3.1280
    9.735    3.1490
    9.870    3.3386
   10.005    3.0542
   10.140    3.1490
   10.275    3.0753
   10.410    2.7909
   10.545    3.0016
   10.680    3.1069
   10.815    3.0964
   10.950    3.0648
   11.085    2.9700
   11.220    3.3807
   11.355    2.9595
   11.490    2.9910
   11.625    2.9910
   11.760    3.0226
   11.895    3.1806
   12.030    3.1385
   12.165    3.0964
   12.300    3.0016
   12.435    3.2754
   12.570    3.2543
   12.705    2.9910
   12.840    3.0648
   12.975    2.8963
   13.110    2.9700
   13.245    2.9700
   13.380    3.0016
   13.515    3.0648
   13.650    2.7383
   13.785    3.0121
   13.920    3.0753
   14.055    2.6751
   14.190    2.9595
   14.325    2.7488
   14.460    2.9279
   14.595    3.1701
   14.730    3.0016
   14.865    3.0753
   15.000    2.8752
   15.135    2.9489
   15.270    3.0016
   15.405    2.7488
   15.540    3.0858
   15.675    2.7278
   15.810    2.6962
   15.945    2.8963
   16.080    3.0016
   16.215    2.7804
   16.350    2.7488
   16.485    2.8752
   16.620    2.8857
   16.755    3.0964
   16.890    3.0542
   17.025    2.9489
   17.160    3.1596
   17.295    2.7383
   17.430    2.8647
   17.565    2.6962
   17.700    2.9173
   17.835    2.8225
   17.970    2.7804
   18.105    2.8857
   18.240    2.9700
   18.375    2.9700
   18.510    2.8963
   18.645    3.1385
   18.780    3.0437
   18.915    2.9384
   19.050    3.0016
   19.185    3.1280
   19.320    3.0437
   19.455    3.0858
   19.590    3.0858
   19.725    3.2649
   19.860    2.8752
   19.995    2.9279
   20.130    2.8541
   20.265    2.8225
   20.400    3.0016
   20.535    3.1385
   20.670    3.0016
   20.805    2.7909
   20.940    2.7383
   21.075    3.1701
   21.210    3.1701
   21.345    3.1174
   21.480    3.2227
   21.615    2.9700
   21.750    3.1912
   21.885    2.9068
   22.020    3.0858
   22.155    2.8015
   22.290    2.9384
   22.425    2.9805
   22.560    3.0542
   22.695    2.9700
   22.830    3.3175
   22.965    2.9384
   23.100    3.2438
   23.235    3.1701
   23.370    3.2543
   23.505    2.9805
   23.640    2.8647
   23.775    3.0858
   23.910    3.1490
   24.045    3.0016
   24.180    2.9910
   24.315    2.8436
   24.450    3.0226
   24.585    2.6330
   24.720    2.7699
   24.855    3.0542
   24.990    2.8857
   25.125    3.1069
   25.260    2.9068
   25.395    2.9384
   25.530    3.0858
   25.665    2.9595
   25.800    2.8963
   25.935    2.6540
   26.070    3.0121
   26.205    2.7909
   26.340    2.8857
   26.475    2.7804
   26.610    2.8752
   26.745    2.7278
   26.880    2.7804
   27.015    2.7172
   27.150    3.0964
   27.285    2.7172
   27.420    2.7909
   27.555    2.9910
   27.690    2.5276
   27.825    2.9068
   27.960    2.6646
   28.095    2.6962
   28.230    2.4539
   28.365    2.4118
   28.500    3.0226
   28.635    2.6540
   28.770    2.6224
   28.905    2.5066
   29.040    2.5382
   29.175    2.6435
   29.310    2.6962
   29.445    2.4013
   29.580    2.4645
   29.715    2.6646
   29.850    2.4013
   29.985    2.4750
   30.120    2.4539
   30.255    2.5066
   30.390    2.5066
   30.525    2.3697
   30.660    2.4329
   30.795    2.3697
   30.930    2.4329
   31.065    2.2959
   31.200    2.2643
   31.335    2.4223
   31.470    2.4223
   31.605    2.2959
   31.740    2.4434
   31.875    2.3486
   32.010    2.2222
   32.145    2.1274
   32.280    2.0853
   32.415    1.9379
   32.550    2.0748
   32.685    2.0116
   32.820    2.2117
   32.955    2.1274
   33.090    2.2854
   33.225    2.1590
   33.360    2.1169
   33.495    1.7904
   33.630    1.9168
   33.765    1.8957
   33.900    1.6114
   34.035    1.7483
   34.170    2.0537
   34.305    1.8852
   34.440    1.8115
   34.575    1.7483
   34.710    1.5587
   34.845    1.8115
   34.980    1.5587
   35.115    1.7694
   35.250    1.7378
   35.385    1.5271
   35.520    1.7062
   35.655    1.4850
   35.790    1.4113
   35.925    1.6430
   36.060    1.6746
   36.195    1.5271
   36.330    1.6640
   36.465    1.4429
   36.600    1.3481
   36.735    1.5482
   36.870    1.4955
   37.005    1.6219
   37.140    1.2638
   37.275    1.3691
   37.410    1.2322
   37.545    1.3481
   37.680    1.2744
   37.815    1.3060
   37.950    1.1374
   38.085    1.3902
   38.220    1.3165
   38.355    1.2849
   38.490    1.1690
   38.625    1.3586
   38.760    1.2533
   38.895    1.1374
   39.030    1.2217
   39.165    1.2428
   39.300    1.2006
   39.435    1.2112
   39.570    1.2428
   39.705    1.2533
   39.840    1.1796
   39.975    1.2849
   39.990    1.1901