File: data/PXRD/PXRD_KE-301_Cu-Ka1_film-3mm_3s-deg.xyd
    1.500   16.2191
    1.635   14.7973
    1.770   13.8143
    1.905   12.3749
    2.040   11.6026
    2.175   11.3217
    2.310   10.1632
    2.445    9.9877
    2.580    9.8999
    2.715    9.2680
    2.850    9.7244
    2.985    9.6367
    3.120   10.2861
    3.255   11.3744
    3.390   15.5520
    3.525   22.3802
    3.660   37.3354
    3.795   88.2394
    3.930   32.6839
    4.065    9.4611
    4.200    8.0393
    4.335    8.1797
    4.470    8.0569
    4.605    7.8462
    4.740    7.9516
    4.875    8.2851
    5.010    8.1797
    5.145   10.0579
    5.280   11.9010
    5.415   21.8536
    5.550   14.0951
    5.685   10.0579
    5.820    8.8819
    5.955    7.8287
    6.090    7.9340
    6.225    7.6707
    6.360    7.1792
    6.495    7.2670
    6.630    8.0042
    6.765    8.7063
    6.900    7.0388
    7.035    6.4771
    7.170    6.6702
    7.305    6.0207
    7.440    6.2313
    7.575    6.8106
    7.710    8.8643
    7.845    6.5824
    7.980    5.3361
    8.115    5.0553
    8.250    5.4415
    8.385    5.0728
    8.520    5.0377
    8.655    5.1957
    8.790    5.0904
    8.925    5.4766
    9.060    4.7393
    9.195    5.0904
    9.330    5.1957
    9.465    9.2680
    9.600    8.8117
    9.735    4.7218
    9.870    4.8622
   10.005    4.5814
   10.140    5.4766
   10.275    7.9691
   10.410    4.8973
   10.545    4.8622
   10.680    5.3010
   10.815    4.6516
   10.950    5.8452
   11.085    6.3191
   11.220    5.2133
   11.355    5.2835
   11.490    5.1431
   11.625    6.1085
   11.760    6.4244
   11.895    5.1255
   12.030    5.1431
   12.165    4.7920
   12.300    5.3712
   12.435    4.5638
   12.570    4.5111
   12.705    4.4409
   12.840    4.8798
   12.975    6.5298
   13.110    4.7744
   13.245    4.8973
   13.380    4.9149
   13.515    6.3191
   13.650    4.7920
   13.785    5.1255
   13.920    4.7569
   14.055    6.0383
   14.190    5.0377
   14.325    4.9149
   14.460    5.0553
   14.595    5.2308
   14.730    4.7744
   14.865    4.4585
   15.000    5.4064
   15.135    5.1782
   15.270    4.6516
   15.405    4.6867
   15.540    4.3883
   15.675    4.3005
   15.810    5.0553
   15.945    5.0553
   16.080    4.9675
   16.215    4.6691
   16.350    4.7920
   16.485    4.7744
   16.620    5.1255
   16.755    4.8447
   16.890    4.2654
   17.025    5.7048
   17.160    4.3005
   17.295    4.8973
   17.430    4.4760
   17.565    4.7218
   17.700    4.4760
   17.835    4.5287
   17.970    5.1431
   18.105    4.4936
   18.240    4.2830
   18.375    4.6516
   18.510    4.1425
   18.645    4.0899
   18.780    4.5989
   18.915    4.2830
   19.050    4.3532
   19.185    5.0377
   19.320    4.0372
   19.455    3.8090
   19.590    5.3361
   19.725    4.4409
   19.860    4.2478
   19.995    4.5111
   20.130    4.3356
   20.265    4.4409
   20.400    6.1260
   20.535    4.3532
   20.670    3.8968
   20.805    4.5463
   20.940    4.0372
   21.075    4.1601
   21.210    3.9670
   21.345    4.6867
   21.480    4.2127
   21.615    3.8617
   21.750    4.1601
   21.885    4.7218
   22.020    3.8968
   22.155    4.1250
   22.290    3.8090
   22.425    3.6159
   22.560    5.7574
   22.695    3.8617
   22.830    3.9670
   22.965    4.9324
   23.100    4.0021
   23.235    4.0372
   23.370    3.8792
   23.505    4.2654
   23.640    3.7739
   23.775    3.6159
   23.910    3.9319
   24.045    3.7739
   24.180    3.7564
   24.315    3.0718
   24.450    3.2649
   24.585    4.0548
   24.720    3.5808
   24.855    3.8090
   24.990    3.2649
   25.125    3.1947
   25.260    3.7213
   25.395    3.0542
   25.530    4.0372
   25.665    3.2298
   25.800    4.5287
   25.935    3.7564
   26.070    3.5633
   26.205    3.1245
   26.340    3.5457
   26.475    3.7915
   26.610    3.5106
   26.745    3.3351
   26.880    3.1420
   27.015    4.0197
   27.150    3.1245
   27.285    2.8787
   27.420    3.0893
   27.555    3.4229
   27.690    3.1420
   27.825    3.0367
   27.960    3.0718
   28.095    2.9489
   28.230    3.3351
   28.365    3.0893
   28.500    3.3526
   28.635    3.3000
   28.770    3.1771
   28.905    3.1245
   29.040    3.6510
   29.175    3.3000
   29.310    3.3351
   29.445    2.7032
   29.580    2.5803
   29.715    2.5979
   29.850    3.3175
   29.985    2.8436
   30.120    2.5979
   30.255    2.5452
   30.390    2.7207
   30.525    2.5628
   30.660    2.5803
   30.795    2.4048
   30.930    2.4925
   31.065    2.4048
   31.200    2.5803
   31.335    2.5276
   31.470    2.6330
   31.605    2.7734
   31.740    3.0191
   31.875    2.8260
   32.010    2.7207
   32.145    2.7734
   32.280    2.0186
   32.415    2.4925
   32.550    2.6505
   32.685    2.3872
   32.820    2.6856
   32.955    2.6856
   33.090    2.3872
   33.225    2.2468
   33.360    2.1590
   33.495    2.5101
   33.630    2.4399
   33.765    2.3521
   33.900    2.7734
   34.035    2.4750
   34.170    2.2995
   34.305    2.5276
   34.440    2.2643
   34.575    2.2819
   34.710    2.0362
   34.845    2.1590
   34.980    1.8431
   35.115    2.2117
   35.250    2.4925
   35.385    2.2995
   35.520    2.0186
   35.655    2.1415
   35.790    2.1590
   35.925    2.2468
   36.060    2.2117
   36.195    2.3697
   36.330    2.2819
   36.465    2.4574
   36.600    2.1239
   36.735    2.1941
   36.870    2.3697
   37.005    2.4223
   37.140    2.3346
   37.275    2.2117
   37.410    2.2292
   37.545    2.2819
   37.680    2.0888
   37.815    2.3697
   37.950    2.5803
   38.085    2.1766
   38.220    2.2292
   38.355    2.0362
   38.490    2.0888
   38.625    2.2468
   38.760    2.0186
   38.895    2.2117
   39.030    2.1415
   39.165    2.1064
   39.300    2.0186
   39.435    2.1941
   39.570    1.8957
   39.705    2.2643
   39.840    2.1239
   39.975    2.1590
   39.990    1.9133