File: data/PXRD/PXRD_KE-180_Cu-Ka1_capillary-1mm_5s-deg.xyd
    1.500   42.8541
    1.635   39.3049
    1.770   35.5766
    1.905   33.1859
    2.040   31.9326
    2.175   31.5745
    2.310   32.4908
    2.445   34.2707
    2.580   35.9136
    2.715   40.6846
    2.850   47.3618
    2.985   57.6303
    3.120   76.0611
    3.255  104.4023
    3.390  171.1532
    3.525  162.7172
    3.660   67.6988
    3.795   70.2791
    3.930   85.5187
    4.065   87.6883
    4.200   65.1290
    4.335   36.0821
    4.470   20.5582
    4.605   15.3660
    4.740   13.3017
    4.875   11.7852
    5.010   11.0479
    5.145   10.7741
    5.280    9.3523
    5.415    9.6788
    5.550    8.7520
    5.685    9.2470
    5.820    8.6677
    5.955    8.5308
    6.090    8.9310
    6.225    9.2575
    6.360    9.2048
    6.495   10.1316
    6.630   11.7536
    6.765   14.7973
    6.900   23.1596
    7.035   20.6003
    7.170   11.7114
    7.305    9.9526
    7.440    9.5208
    7.575   10.1738
    7.710   10.6477
    7.845   12.1643
    7.980   12.9963
    8.115   14.6288
    8.250   13.7862
    8.385   13.0490
    8.520   12.2591
    8.655   10.5108
    8.790    9.3207
    8.925    8.7309
    9.060    8.3096
    9.195    8.1517
    9.330    8.1517
    9.465    7.8041
    9.600    7.9621
    9.735    7.7093
    9.870    7.7199
   10.005    7.8462
   10.140    8.0253
   10.275    8.4466
   10.410    8.7309
   10.545    9.3102
   10.680    8.2780
   10.815    7.6040
   10.950    7.5197
   11.085    7.1933
   11.220    7.6883
   11.355    7.3934
   11.490    7.7409
   11.625    7.5197
   11.760    8.3623
   11.895    8.1938
   12.030    8.6045
   12.165    8.2043
   12.300    8.5308
   12.435    8.7309
   12.570    8.1622
   12.705    8.5624
   12.840    8.4360
   12.975    7.8357
   13.110    8.1938
   13.245    8.2570
   13.380    8.2043
   13.515    7.6672
   13.650    7.8462
   13.785    8.0042
   13.920    7.6040
   14.055    7.6988
   14.190    7.9621
   14.325    8.0147
   14.460    7.3302
   14.595    7.4776
   14.730    7.1301
   14.865    7.4671
   15.000    7.1933
   15.135    7.2459
   15.270    7.4460
   15.405    7.1617
   15.540    7.3091
   15.675    7.4776
   15.810    7.9410
   15.945    7.7725
   16.080    7.4250
   16.215    7.2880
   16.350    7.0985
   16.485    7.4144
   16.620    7.2354
   16.755    7.1090
   16.890    7.3618
   17.025    7.4566
   17.160    7.1195
   17.295    7.1827
   17.430    7.6988
   17.565    7.1301
   17.700    7.3091
   17.835    7.0037
   17.970    7.5408
   18.105    7.3618
   18.240    7.3091
   18.375    7.3828
   18.510    7.6145
   18.645    7.4144
   18.780    7.6672
   18.915    7.6461
   19.050    7.4039
   19.185    7.6356
   19.320    7.9726
   19.455    8.1938
   19.590    7.9094
   19.725    8.0042
   19.860    8.2991
   19.995    8.2780
   20.130    8.4676
   20.265    8.7520
   20.400    8.3939
   20.535    8.4255
   20.670    8.2043
   20.805    8.0463
   20.940    8.4360
   21.075    8.2149
   21.210    8.3834
   21.345    8.2464
   21.480    8.1095
   21.615    8.2254
   21.750    8.3096
   21.885    8.4044
   22.020    8.2043
   22.155    8.3939
   22.290    7.8041
   22.425    8.0990
   22.560    7.9937
   22.695    7.8884
   22.830    8.1201
   22.965    8.4360
   23.100    8.3728
   23.235    7.8041
   23.370    7.7830
   23.505    7.7725
   23.640    7.8568
   23.775    7.6251
   23.910    7.8884
   24.045    7.5935
   24.180    8.0674
   24.315    7.7830
   24.450    7.5303
   24.585    7.7936
   24.720    7.7409
   24.855    7.5092
   24.990    7.2880
   25.125    7.7936
   25.260    7.2038
   25.395    6.9616
   25.530    7.0142
   25.665    7.1827
   25.800    7.3091
   25.935    7.2354
   26.070    6.6035
   26.205    7.1090
   26.340    6.7404
   26.475    6.8246
   26.610    7.1827
   26.745    7.0774
   26.880    6.9616
   27.015    7.2880
   27.150    7.2038
   27.285    7.0037
   27.420    7.2038
   27.555    6.3928
   27.690    7.0248
   27.825    6.8984
   27.960    7.1301
   28.095    6.7720
   28.230    7.6040
   28.365    6.9300
   28.500    6.4876
   28.635    7.0669
   28.770    6.8457
   28.905    6.7299
   29.040    6.4982
   29.175    7.0142
   29.310    6.5508
   29.445    6.5508
   29.580    6.6877
   29.715    6.7404
   29.850    6.8036
   29.985    6.7825
   30.120    6.6456
   30.255    6.4560
   30.390    6.8141
   30.525    6.5824
   30.660    6.6140
   30.795    6.3402
   30.930    6.5719
   31.065    6.2559
   31.200    6.3402
   31.335    6.5403
   31.470    6.7825
   31.605    6.7509
   31.740    6.4244
   31.875    6.7930
   32.010    6.2665
   32.145    6.7299
   32.280    6.5403
   32.415    6.2349
   32.550    6.4034
   32.685    6.2875
   32.820    6.5087
   32.955    6.2243
   33.090    6.0242
   33.225    6.3718
   33.360    6.1506
   33.495    6.2559
   33.630    6.5403
   33.765    6.1295
   33.900    5.6135
   34.035    5.8768
   34.170    6.3507
   34.305    5.9821
   34.440    6.0242
   34.575    5.9505
   34.710    6.1611
   34.845    5.7925
   34.980    6.1401
   35.115    5.9084
   35.250    6.2559
   35.385    5.9716
   35.520    5.7293
   35.655    5.6977
   35.790    5.7715
   35.925    5.9716
   36.060    5.9505
   36.195    5.7188
   36.330    6.0453
   36.465    5.6767
   36.600    5.8978
   36.735    5.7188
   36.870    5.4871
   37.005    5.7293
   37.140    5.7609
   37.275    5.6240
   37.410    5.4239
   37.545    5.8662
   37.680    5.5187
   37.815    6.0242
   37.950    5.6556
   38.085    5.6872
   38.220    6.0874
   38.355    5.6240
   38.490    5.6872
   38.625    5.7399
   38.760    6.1822
   38.895    5.7399
   39.030    5.6029
   39.165    5.5924
   39.300    5.6135
   39.435    5.7188
   39.570    5.9610
   39.705    5.6977
   39.840    5.7399
   39.975    5.8452
   39.990    5.9084