File: data/PXRD/PXRD_KE-049_Cu-Ka1_capillary-1mm_5s-deg.xyd
    1.500   24.9184
    1.635   22.8647
    1.770   22.0537
    1.905   21.4007
    2.040   21.3586
    2.175   22.0432
    2.310   23.7704
    2.445   24.4760
    2.580   29.0995
    2.715   31.8905
    2.850   38.9047
    2.985   47.2249
    3.120   61.3376
    3.255   85.1080
    3.390  135.9137
    3.525  149.8578
    3.660   50.4265
    3.795   57.9884
    3.930   83.8441
    4.065   88.6467
    4.200   66.7615
    4.335   31.1743
    4.470   16.5666
    4.605   11.9221
    4.740    9.8262
    4.875    9.4471
    5.010    9.0469
    5.145    9.6261
    5.280   10.2791
    5.415   10.3739
    5.550   12.9753
    5.685    7.8673
    5.820    7.5935
    5.955    7.9621
    6.090    8.2675
    6.225    8.1411
    6.360    8.6151
    6.495    9.4997
    6.630   11.1954
    6.765   14.6393
    6.900   21.9905
    7.035   20.2949
    7.170    8.6783
    7.305    8.3412
    7.440    8.1727
    7.575    8.7941
    7.710    9.6472
    7.845   10.8899
    7.980   12.3117
    8.115   14.8289
    8.250   15.3344
    8.385   14.5445
    8.520   12.0800
    8.655   11.1638
    8.790    9.2996
    8.925    8.8573
    9.060    9.0995
    9.195    9.7104
    9.330    9.8578
    9.465    8.7836
    9.600    9.7946
    9.735    7.2143
    9.870    8.0885
   10.005    7.5513
   10.140    8.1833
   10.275    8.8152
   10.410    8.9731
   10.545    7.7830
   10.680    8.0042
   10.815    7.9410
   10.950    7.7725
   11.085    7.9305
   11.220    7.2880
   11.355    7.5513
   11.490    7.7725
   11.625    7.9726
   11.760    8.8046
   11.895    7.9200
   12.030    7.8673
   12.165    9.1732
   12.300    9.0890
   12.435    8.9415
   12.570    8.4676
   12.705    8.7625
   12.840    8.4887
   12.975    8.3412
   13.110    8.3202
   13.245    8.1833
   13.380    8.0990
   13.515    7.9831
   13.650    8.1095
   13.785    8.0779
   13.920    7.3618
   14.055    7.4776
   14.190    7.0458
   14.325    7.2565
   14.460    7.2038
   14.595    6.9826
   14.730    6.9405
   14.865    6.8984
   15.000    7.0458
   15.135    6.6351
   15.270    7.4566
   15.405    7.5513
   15.540    7.7304
   15.675    7.4776
   15.810    7.3512
   15.945    7.4355
   16.080    7.2354
   16.215    7.3302
   16.350    7.4460
   16.485    7.2670
   16.620    7.3196
   16.755    7.3512
   16.890    6.9932
   17.025    7.5197
   17.160    7.3828
   17.295    6.8036
   17.430    7.4250
   17.565    8.1938
   17.700    7.8041
   17.835    7.6040
   17.970    7.3934
   18.105    7.4987
   18.240    7.2249
   18.375    7.2249
   18.510    7.4039
   18.645    7.3512
   18.780    7.0353
   18.915    7.2249
   19.050    7.2354
   19.185    7.5513
   19.320    7.3302
   19.455    7.7830
   19.590    8.1938
   19.725    8.2254
   19.860    8.2991
   19.995    8.5308
   20.130    8.3834
   20.265    8.1833
   20.400    8.2254
   20.535    7.9410
   20.670    8.0358
   20.805    8.2780
   20.940    8.0147
   21.075    8.7309
   21.210    8.2991
   21.345    8.9310
   21.480    8.5308
   21.615    8.0569
   21.750    8.3939
   21.885    8.0253
   22.020    8.1622
   22.155    7.9726
   22.290    8.0147
   22.425    8.0358
   22.560    8.1833
   22.695    7.5724
   22.830    8.0569
   22.965    8.5203
   23.100    8.1727
   23.235    8.1201
   23.370    8.0147
   23.505    7.5513
   23.640    8.0885
   23.775    7.9621
   23.910    7.7514
   24.045    7.7304
   24.180    7.3512
   24.315    7.4776
   24.450    7.7830
   24.585    7.8989
   24.720    7.7093
   24.855    7.6356
   24.990    7.6356
   25.125    7.4460
   25.260    7.7514
   25.395    7.3407
   25.530    7.4460
   25.665    7.2354
   25.800    7.2038
   25.935    7.2775
   26.070    7.5092
   26.205    6.8246
   26.340    7.2354
   26.475    7.0563
   26.610    6.8878
   26.745    7.3196
   26.880    7.1406
   27.015    7.0037
   27.150    7.2038
   27.285    6.6561
   27.420    6.7615
   27.555    6.5403
   27.690    6.5192
   27.825    6.9300
   27.960    6.8878
   28.095    7.0669
   28.230    7.2459
   28.365    6.8668
   28.500    7.0353
   28.635    6.8773
   28.770    6.8141
   28.905    6.7193
   29.040    6.5298
   29.175    6.7299
   29.310    6.6245
   29.445    6.6561
   29.580    6.6351
   29.715    6.7720
   29.850    6.8352
   29.985    6.7088
   30.120    6.4560
   30.255    7.0248
   30.390    6.3718
   30.525    6.3612
   30.660    6.4350
   30.795    6.2033
   30.930    6.6351
   31.065    6.7299
   31.200    6.4034
   31.335    5.9505
   31.470    6.7299
   31.605    6.4455
   31.740    6.6245
   31.875    6.3718
   32.010    6.4244
   32.145    6.4139
   32.280    6.2875
   32.415    6.3086
   32.550    6.4982
   32.685    6.0558
   32.820    6.1822
   32.955    6.3928
   33.090    6.0453
   33.225    5.8662
   33.360    5.8347
   33.495    5.8136
   33.630    6.3402
   33.765    5.5924
   33.900    5.9189
   34.035    6.3191
   34.170    6.2033
   34.305    5.5503
   34.440    6.1506
   34.575    5.8768
   34.710    5.5819
   34.845    5.9926
   34.980    5.9189
   35.115    5.9084
   35.250    6.0979
   35.385    5.8241
   35.520    5.8978
   35.655    6.0242
   35.790    5.6977
   35.925    5.6767
   36.060    5.3818
   36.195    6.0664
   36.330    5.9189
   36.465    5.6135
   36.600    5.2765
   36.735    5.4660
   36.870    5.6556
   37.005    5.7083
   37.140    5.6135
   37.275    5.8241
   37.410    5.3923
   37.545    5.8662
   37.680    5.4239
   37.815    5.6029
   37.950    5.4555
   38.085    5.0764
   38.220    5.4660
   38.355    5.4555
   38.490    5.3397
   38.625    5.3712
   38.760    5.4134
   38.895    5.4344
   39.030    5.6451
   39.165    5.7504
   39.300    5.3081
   39.435    5.2659
   39.570    5.4555
   39.705    5.5187
   39.840    5.4555
   39.975    5.0237
   39.990    5.3397