File: data/PXRD/PXRD_Blank_Cu-Ka1_capillary-1mm_3s-deg.xyd
    1.500    1.5096
    1.665    1.5096
    1.830    1.8957
    1.995    1.6149
    2.160    1.4569
    2.325    1.5622
    2.490    1.8606
    2.655    1.7378
    2.820    1.7729
    2.985    2.0713
    3.150    1.9308
    3.315    1.2463
    3.480    1.6851
    3.645    1.7729
    3.810    1.6149
    3.975    2.0713
    4.140    1.9659
    4.305    1.6149
    4.470    1.9308
    4.635    1.7904
    4.800    1.5973
    4.965    1.8431
    5.130    2.0186
    5.295    1.7378
    5.460    1.9484
    5.625    2.0888
    5.790    1.7904
    5.955    2.0362
    6.120    1.8431
    6.285    1.8080
    6.450    1.8255
    6.615    1.8606
    6.780    1.8606
    6.945    1.9835
    7.110    1.6324
    7.275    1.8782
    7.440    1.7202
    7.605    2.0186
    7.770    2.2292
    7.935    1.7202
    8.100    1.8080
    8.265    1.5973
    8.430    1.8431
    8.595    1.9835
    8.760    1.8606
    8.925    1.4920
    9.090    1.6851
    9.255    1.8080
    9.420    2.0011
    9.585    1.7027
    9.750    1.7904
    9.915    1.8606
   10.080    1.7904
   10.245    1.8782
   10.410    1.8782
   10.575    1.6675
   10.740    1.6149
   10.905    1.9835
   11.070    1.5798
   11.235    1.7904
   11.400    1.7027
   11.565    1.9133
   11.730    1.9308
   11.895    1.6149
   12.060    1.8606
   12.225    1.6500
   12.390    1.5447
   12.555    1.7378
   12.720    1.8255
   12.885    1.8431
   13.050    1.4218
   13.215    1.5096
   13.380    1.5096
   13.545    1.6675
   13.710    1.5622
   13.875    1.7202
   14.040    1.5798
   14.205    1.5622
   14.370    1.5622
   14.535    1.4920
   14.700    1.3691
   14.865    1.5271
   15.030    1.6324
   15.195    1.5798
   15.360    1.7027
   15.525    1.5447
   15.690    1.7202
   15.855    1.3867
   16.020    1.6324
   16.185    2.0362
   16.350    1.4745
   16.515    1.5096
   16.680    1.4920
   16.845    1.8080
   17.010    1.4394
   17.175    1.5096
   17.340    1.6149
   17.505    1.5973
   17.670    1.3516
   17.835    1.4920
   18.000    1.4920
   18.165    1.7729
   18.330    1.8431
   18.495    1.5798
   18.660    1.6851
   18.825    1.7729
   18.990    1.5271
   19.155    1.7202
   19.320    1.6500
   19.485    1.7729
   19.650    1.7027
   19.815    1.7904
   19.980    1.8431
   20.145    1.5973
   20.310    1.5622
   20.475    1.5798
   20.640    1.9835
   20.805    1.6149
   20.970    1.7202
   21.135    1.8255
   21.300    1.7553
   21.465    1.4920
   21.630    1.8255
   21.795    1.5798
   21.960    1.6675
   22.125    1.6324
   22.290    1.7729
   22.455    1.9835
   22.620    1.5447
   22.785    1.9133
   22.950    1.8957
   23.115    2.0186
   23.280    1.6675
   23.445    1.7553
   23.610    1.9133
   23.775    1.7027
   23.940    1.7729
   24.105    1.8606
   24.270    1.7378
   24.435    1.6675
   24.600    1.4920
   24.765    1.5973
   24.930    1.4394
   25.095    1.6324
   25.260    1.7553
   25.425    1.5447
   25.590    1.8080
   25.755    1.7904
   25.920    1.3165
   26.085    1.5798
   26.250    1.6149
   26.415    1.4920
   26.580    1.5096
   26.745    1.4042
   26.910    1.7027
   27.075    1.4920
   27.240    1.4394
   27.405    1.4218
   27.570    1.3516
   27.735    1.4394
   27.900    1.4042
   28.065    1.4394
   28.230    1.4569
   28.395    1.4394
   28.560    1.6500
   28.725    1.3340
   28.890    1.4042
   29.055    1.4042
   29.220    1.1936
   29.385    1.1761
   29.550    1.3867
   29.715    1.3691
   29.880    1.3165
   30.045    1.3340
   30.210    1.3691
   30.375    1.4745
   30.540    1.2287
   30.705    1.4394
   30.870    1.1761
   31.035    1.0181
   31.200    1.1585
   31.365    1.2989
   31.530    1.4218
   31.695    1.1761
   31.860    1.1761
   32.025    1.0532
   32.190    1.1936
   32.355    1.0883
   32.520    1.0005
   32.685    0.9303
   32.850    1.2287
   33.015    1.1058
   33.180    0.9830
   33.345    1.1234
   33.510    0.8952
   33.675    0.9303
   33.840    1.1234
   34.005    1.0356
   34.170    1.0532
   34.335    1.1761
   34.500    0.8952
   34.665    0.7899
   34.830    1.0356
   34.995    1.1234
   35.160    1.1058
   35.325    0.9303
   35.490    0.7548
   35.655    0.8425
   35.820    0.9479
   35.985    0.7372
   36.150    0.7723
   36.315    0.9830
   36.480    0.6670
   36.645    0.7723
   36.810    0.7899
   36.975    0.8074
   37.140    0.7899
   37.305    0.7197
   37.470    0.6670
   37.635    0.7548
   37.800    0.8074
   37.965    0.7548
   38.130    0.6319
   38.295    0.6846
   38.460    0.6144
   38.625    0.6670
   38.790    0.7723
   38.955    0.7548
   39.120    0.5266
   39.285    0.7548
   39.450    0.8250
   39.615    0.5968
   39.780    0.5793
   39.945    0.7021
   40.110    0.6144
   40.275    0.6319
   40.440    0.6495
   40.605    0.5793
   40.770    0.6846
   40.935    0.7197
   41.100    0.6670
   41.265    0.7372
   41.430    0.4915
   41.595    0.6319
   41.760    0.7899
   41.925    0.6670
   42.090    0.5441
   42.255    0.6495
   42.420    0.5793
   42.585    0.4915
   42.750    0.5617
   42.915    0.6846
   43.080    0.5266
   43.245    0.6495
   43.410    0.7723
   43.575    0.5793
   43.740    0.5441
   43.905    0.5617
   44.070    0.5441
   44.235    0.4739
   44.400    0.5441
   44.565    0.5090
   44.730    0.5793
   44.895    0.5793
   45.060    0.4037
   45.225    0.6319
   45.390    0.5441
   45.555    0.4739
   45.720    0.5968
   45.885    0.5968
   46.050    0.6495
   46.215    0.5617
   46.380    0.4388
   46.545    0.5090
   46.710    0.5617
   46.875    0.4739
   47.040    0.5090
   47.205    0.4213
   47.370    0.5266
   47.535    0.4388
   47.700    0.4915
   47.865    0.6144
   48.030    0.5617
   48.195    0.4915
   48.360    0.3160
   48.525    0.4739
   48.690    0.6144
   48.855    0.4915
   49.020    0.4388
   49.185    0.5090
   49.350    0.4213
   49.515    0.3335
   49.680    0.4388
   49.845    0.4388
   49.980    0.4388