File: data/PXRD/PXRD_KE-274_Cu-Ka1_film-3mm_3s-deg.xyd
    1.500   21.2217
    1.635   18.6063
    1.770   16.6579
    1.905   15.4467
    2.040   14.2005
    2.175   12.5329
    2.310   12.5680
    2.445   11.3744
    2.580   11.6728
    2.715   11.5324
    2.850   10.5494
    2.985   10.5845
    3.120   10.9531
    3.255   12.3047
    3.390   14.0249
    3.525   20.2387
    3.660   32.6137
    3.795   74.0916
    3.930   42.7945
    4.065   10.7776
    4.200    9.6893
    4.335    9.5489
    4.470    8.9872
    4.605    9.0925
    4.740    8.8643
    4.875    9.5489
    5.010   10.0228
    5.145   10.4792
    5.280   13.0595
    5.415   20.0807
    5.550   18.5010
    5.685   11.1111
    5.820   10.2159
    5.955    9.9877
    6.090    9.0574
    6.225    8.8468
    6.360    8.3553
    6.495    8.5133
    6.630    7.7234
    6.765    8.5484
    6.900    7.1968
    7.035    7.3196
    7.170    7.3899
    7.305    7.2845
    7.440    7.0563
    7.575    6.8106
    7.710    9.4611
    7.845    8.8819
    7.980    5.8978
    8.115    5.9505
    8.250    5.6521
    8.385    5.9505
    8.520    5.8803
    8.655    6.7053
    8.790    6.6175
    8.925    6.1611
    9.060    5.9505
    9.195    5.9329
    9.330    5.6872
    9.465    8.7414
    9.600   11.2515
    9.735    5.8276
    9.870    5.6697
   10.005    5.6170
   10.140    6.0383
   10.275    7.0037
   10.410    6.1611
   10.545    5.9681
   10.680    6.2138
   10.815    6.3367
   10.950    6.4771
   11.085    8.6010
   11.220    5.7750
   11.355    6.2665
   11.490    6.5824
   11.625    6.5824
   11.760    8.0393
   11.895    5.8978
   12.030    5.8276
   12.165    5.4590
   12.300    5.4941
   12.435    5.1080
   12.570    5.4239
   12.705    5.0553
   12.840    5.6697
   12.975    7.4601
   13.110    5.2484
   13.245    5.2133
   13.380    5.3537
   13.515    5.7925
   13.650    5.2308
   13.785    5.0026
   13.920    5.2308
   14.055    6.4595
   14.190    6.6526
   14.325    5.9505
   14.460    5.2308
   14.595    5.7574
   14.730    5.4239
   14.865    5.6345
   15.000    5.5643
   15.135    5.6872
   15.270    4.7744
   15.405    5.8101
   15.540    5.1431
   15.675    4.7920
   15.810    4.8798
   15.945    5.4766
   16.080    5.6872
   16.215    5.5643
   16.350    6.1611
   16.485    4.9675
   16.620    5.6521
   16.755    5.2835
   16.890    4.6516
   17.025    5.5643
   17.160    5.5468
   17.295    5.3186
   17.430    4.6165
   17.565    5.5994
   17.700    5.1080
   17.835    4.9149
   17.970    5.0377
   18.105    5.1957
   18.240    5.0202
   18.375    5.1957
   18.510    5.4239
   18.645    4.8973
   18.780    5.2308
   18.915    5.0202
   19.050    5.2659
   19.185    5.2484
   19.320    5.5292
   19.455    4.7218
   19.590    5.4766
   19.725    5.0377
   19.860    4.8095
   19.995    4.5814
   20.130    5.0377
   20.265    4.8622
   20.400    5.9681
   20.535    5.0026
   20.670    4.4760
   20.805    5.0377
   20.940    5.0728
   21.075    4.3707
   21.210    4.7920
   21.345    4.4058
   21.480    4.5814
   21.615    4.8973
   21.750    4.5287
   21.885    5.2133
   22.020    4.7920
   22.155    4.6691
   22.290    4.5638
   22.425    4.3707
   22.560    5.4239
   22.695    5.0026
   22.830    4.8973
   22.965    6.0207
   23.100    4.4058
   23.235    4.4409
   23.370    4.5989
   23.505    4.5814
   23.640    4.7569
   23.775    4.3181
   23.910    4.5638
   24.045    4.1601
   24.180    4.2303
   24.315    4.3356
   24.450    4.1074
   24.585    3.9143
   24.720    4.3356
   24.855    4.1250
   24.990    4.3707
   25.125    4.1074
   25.260    4.0899
   25.395    4.1952
   25.530    4.2127
   25.665    3.9143
   25.800    4.0372
   25.935    4.4234
   26.070    3.8090
   26.205    4.3532
   26.340    4.1074
   26.475    3.7213
   26.610    4.1074
   26.745    3.7564
   26.880    3.7388
   27.015    3.3877
   27.150    3.8441
   27.285    3.4931
   27.420    3.8617
   27.555    3.4229
   27.690    3.8792
   27.825    3.6686
   27.960    3.5282
   28.095    3.2649
   28.230    3.7739
   28.365    3.8968
   28.500    4.1776
   28.635    3.7037
   28.770    3.8441
   28.905    3.3351
   29.040    3.8968
   29.175    3.5457
   29.310    3.5808
   29.445    3.7739
   29.580    3.2473
   29.715    3.2473
   29.850    3.2649
   29.985    3.1420
   30.120    3.4229
   30.255    3.1947
   30.390    3.4580
   30.525    2.7734
   30.660    3.0367
   30.795    3.3526
   30.930    2.8963
   31.065    3.0893
   31.200    2.9138
   31.335    2.9138
   31.470    2.8436
   31.605    3.0542
   31.740    3.3000
   31.875    3.4229
   32.010    2.8260
   32.145    2.7734
   32.280    2.7909
   32.415    2.7207
   32.550    2.8436
   32.685    3.0367
   32.820    2.5101
   32.955    2.6505
   33.090    2.6154
   33.225    2.5452
   33.360    2.8787
   33.495    2.4750
   33.630    2.7734
   33.765    2.4750
   33.900    3.0718
   34.035    2.3521
   34.170    2.7032
   34.305    2.5101
   34.440    2.7383
   34.575    2.8787
   34.710    2.7207
   34.845    2.8612
   34.980    2.6505
   35.115    3.0893
   35.250    2.7383
   35.385    2.5628
   35.520    2.3697
   35.655    2.5803
   35.790    2.6856
   35.925    2.4048
   36.060    2.8085
   36.195    2.8260
   36.330    2.9665
   36.465    2.8612
   36.600    2.1941
   36.735    2.8436
   36.870    2.6505
   37.005    2.5628
   37.140    2.8787
   37.275    2.3872
   37.410    2.2643
   37.545    2.3872
   37.680    2.4223
   37.815    2.5979
   37.950    2.3170
   38.085    2.6856
   38.220    2.6154
   38.355    2.8436
   38.490    2.4223
   38.625    2.2117
   38.760    2.3346
   38.895    2.4750
   39.030    2.0186
   39.165    2.5628
   39.300    2.5628
   39.435    2.2468
   39.570    2.3170
   39.705    2.4750
   39.840    2.4574
   39.975    2.5979
   39.990    2.5276