File: data/PXRD/PXRD_KE-287_Co-Ka1_film-3mm_5s-deg.xyd
    1.500    3.1140
    1.635    2.9213
    1.770    2.4291
    1.905    2.2151
    2.040    1.8620
    2.175    1.8941
    2.310    1.6586
    2.445    1.5837
    2.580    1.5944
    2.715    1.7228
    2.850    1.5409
    2.985    1.2734
    3.120    1.3804
    3.255    1.3697
    3.390    1.3269
    3.525    1.4446
    3.660    1.4232
    3.795    1.2413
    3.930    1.3269
    4.065    1.4339
    4.200    1.2627
    4.335    1.4874
    4.470    1.6693
    4.605    1.4018
    4.740    1.3590
    4.875    1.4767
    5.010    1.3055
    5.145    1.2092
    5.280    1.4339
    5.415    1.2627
    5.550    1.3483
    5.685    1.4446
    5.820    1.4232
    5.955    1.4767
    6.090    1.6693
    6.225    1.7549
    6.360    1.7871
    6.495    1.8299
    6.630    1.7764
    6.765    1.6265
    6.900    1.4232
    7.035    1.5409
    7.170    1.4232
    7.305    1.3055
    7.440    1.4125
    7.575    1.2841
    7.710    1.1450
    7.845    1.3911
    7.980    1.1878
    8.115    1.1771
    8.250    1.1878
    8.385    1.0487
    8.520    1.1985
    8.655    0.9096
    8.790    1.1450
    8.925    0.8561
    9.060    1.0487
    9.195    0.8882
    9.330    0.9096
    9.465    0.8882
    9.600    1.0487
    9.735    0.9524
    9.870    0.8347
   10.005    0.8668
   10.140    0.7919
   10.275    0.7170
   10.410    0.7919
   10.545    0.8668
   10.680    0.7384
   10.815    0.8347
   10.950    0.8989
   11.085    1.0059
   11.220    0.7277
   11.355    0.8668
   11.490    0.8240
   11.625    0.7705
   11.760    0.8026
   11.895    0.7170
   12.030    1.1985
   12.165    0.6849
   12.300    0.9310
   12.435    0.9524
   12.570    0.8882
   12.705    0.8561
   12.840    0.9845
   12.975    0.9096
   13.110    0.7919
   13.245    0.8989
   13.380    0.9096
   13.515    0.9203
   13.650    1.1450
   13.785    0.9524
   13.920    0.8133
   14.055    0.7812
   14.190    0.8133
   14.325    0.7598
   14.460    0.8561
   14.595    0.7705
   14.730    0.8133
   14.865    0.8561
   15.000    0.7705
   15.135    0.7705
   15.270    0.7812
   15.405    0.7919
   15.540    0.5350
   15.675    0.8561
   15.810    0.7491
   15.945    0.8347
   16.080    0.8026
   16.215    0.7919
   16.350    0.8989
   16.485    0.8240
   16.620    0.7812
   16.755    0.9845
   16.890    0.8989
   17.025    0.8454
   17.160    0.9417
   17.295    0.7919
   17.430    0.7063
   17.565    0.7919
   17.700    0.7598
   17.835    0.7384
   17.970    0.8347
   18.105    0.8133
   18.240    0.8775
   18.375    0.6528
   18.510    0.6956
   18.645    0.7705
   18.780    0.7384
   18.915    0.6849
   19.050    0.7705
   19.185    0.8775
   19.320    0.7277
   19.455    0.8347
   19.590    0.7170
   19.725    0.7919
   19.860    0.8454
   19.995    0.8240
   20.130    0.7705
   20.265    0.7812
   20.400    0.8347
   20.535    0.6421
   20.670    0.7277
   20.805    0.7063
   20.940    0.7598
   21.075    0.6956
   21.210    0.7598
   21.345    0.8026
   21.480    0.7812
   21.615    0.7812
   21.750    0.8026
   21.885    0.8240
   22.020    0.7384
   22.155    0.8561
   22.290    0.5136
   22.425    0.7919
   22.560    0.7705
   22.695    0.5564
   22.830    0.6314
   22.965    0.6314
   23.100    0.7170
   23.235    0.6849
   23.370    0.7170
   23.505    0.7491
   23.640    0.7705
   23.775    0.6956
   23.910    0.7277
   24.045    0.5886
   24.180    0.6849
   24.315    0.6528
   24.450    0.5993
   24.585    0.7277
   24.720    0.5886
   24.855    0.8026
   24.990    0.7491
   25.125    0.8026
   25.260    0.5886
   25.395    0.6207
   25.530    0.8775
   25.665    0.7063
   25.800    0.6635
   25.935    0.7384
   26.070    0.6100
   26.205    0.6314
   26.340    0.6100
   26.475    0.5778
   26.610    0.5778
   26.745    0.5886
   26.880    0.4387
   27.015    0.7919
   27.150    0.5243
   27.285    0.5136
   27.420    0.5029
   27.555    0.5564
   27.690    0.4387
   27.825    0.7063
   27.960    0.5457
   28.095    0.5671
   28.230    0.5457
   28.365    0.5993
   28.500    0.6100
   28.635    0.5243
   28.770    0.4815
   28.905    0.5564
   29.040    0.5029
   29.175    0.4815
   29.310    0.5243
   29.445    0.4815
   29.580    0.4708
   29.715    0.5886
   29.850    0.5457
   29.985    0.5136
   30.120    0.7812
   30.255    0.4601
   30.390    0.4922
   30.525    0.5136
   30.660    0.5671
   30.795    0.4601
   30.930    0.4601
   31.065    0.5029
   31.200    0.4173
   31.335    0.5243
   31.470    0.4922
   31.605    0.3959
   31.740    0.5778
   31.875    0.3745
   32.010    0.3638
   32.145    0.3959
   32.280    0.4922
   32.415    0.3210
   32.550    0.4280
   32.685    0.5564
   32.820    0.5243
   32.955    0.3424
   33.090    0.4280
   33.225    0.4601
   33.360    0.5564
   33.495    0.4387
   33.630    0.4066
   33.765    0.4708
   33.900    0.3638
   34.035    0.4173
   34.170    0.3531
   34.305    0.4066
   34.440    0.3531
   34.575    0.3745
   34.710    0.3638
   34.845    0.4387
   34.980    0.3638
   35.115    0.3638
   35.250    0.3424
   35.385    0.3317
   35.520    0.3852
   35.655    0.2675
   35.790    0.3959
   35.925    0.3317
   36.060    0.4708
   36.195    0.3531
   36.330    0.2247
   36.465    0.2996
   36.600    0.3103
   36.735    0.3210
   36.870    0.2247
   37.005    0.3745
   37.140    0.3959
   37.275    0.2675
   37.410    0.2782
   37.545    0.4280
   37.680    0.3317
   37.815    0.3210
   37.950    0.3103
   38.085    0.2675
   38.220    0.2996
   38.355    0.3210
   38.490    0.3210
   38.625    0.2140
   38.760    0.2675
   38.895    0.3210
   39.030    0.3424
   39.165    0.2675
   39.300    0.3317
   39.435    0.2461
   39.570    0.3103
   39.705    0.3638
   39.840    0.2354
   39.975    0.2889
   39.990    0.2354