File: data/PXRD/PXRD_KE-321D_Cu-Ka1_capillary-1mm_3s-deg_thick.xyd
    1.500    3.2122
    1.665    2.7734
    1.830    2.2468
    1.995    2.1239
    2.160    2.0888
    2.325    1.9835
    2.490    2.2995
    2.655    2.2292
    2.820    2.3170
    2.985    3.0016
    3.150    3.7915
    3.315    4.5287
    3.480    6.0207
    3.645    9.5840
    3.810   23.9424
    3.975    2.0011
    4.140    1.2112
    4.305    1.0181
    4.470    1.0005
    4.635    1.0181
    4.800    1.1234
    4.965    1.1761
    5.130    1.2112
    5.295    1.8255
    5.460    3.0718
    5.625    0.9479
    5.790    0.9128
    5.955    0.8777
    6.120    1.0005
    6.285    0.9479
    6.450    0.8777
    6.615    0.9830
    6.780    0.8952
    6.945    0.7021
    7.110    0.7548
    7.275    0.9303
    7.440    0.9479
    7.605    1.4042
    7.770    1.7378
    7.935    0.8601
    8.100    0.9654
    8.265    0.9303
    8.430    0.8250
    8.595    0.7021
    8.760    1.1410
    8.925    0.9479
    9.090    0.9479
    9.255    1.1585
    9.420    1.5447
    9.585    1.6149
    9.750    1.0356
    9.915    1.0356
   10.080    1.0707
   10.245    1.8080
   10.410    1.1058
   10.575    1.0532
   10.740    1.0707
   10.905    0.9303
   11.070    1.0532
   11.235    1.0532
   11.400    0.9830
   11.565    0.9654
   11.730    1.0883
   11.895    0.9654
   12.060    0.8425
   12.225    1.1234
   12.390    1.0356
   12.555    1.1761
   12.720    0.9479
   12.885    1.0532
   13.050    1.0181
   13.215    0.9830
   13.380    0.9303
   13.545    1.1058
   13.710    0.8952
   13.875    0.8952
   14.040    1.0707
   14.205    1.0707
   14.370    0.8250
   14.535    1.0356
   14.700    0.7372
   14.865    0.9479
   15.030    1.0005
   15.195    1.1585
   15.360    0.8250
   15.525    0.7899
   15.690    1.0707
   15.855    0.8074
   16.020    0.9128
   16.185    0.9830
   16.350    0.9830
   16.515    0.9479
   16.680    1.1410
   16.845    1.0181
   17.010    1.3516
   17.175    1.0005
   17.340    0.9128
   17.505    0.9303
   17.670    1.0356
   17.835    1.0532
   18.000    1.0005
   18.165    0.8952
   18.330    0.8425
   18.495    0.9654
   18.660    1.1761
   18.825    0.9479
   18.990    1.0532
   19.155    0.6846
   19.320    1.0356
   19.485    1.0883
   19.650    1.1761
   19.815    1.1234
   19.980    1.0883
   20.145    0.8952
   20.310    1.2814
   20.475    0.9830
   20.640    0.9479
   20.805    1.0707
   20.970    1.0356
   21.135    1.0883
   21.300    1.0005
   21.465    0.8952
   21.630    0.9128
   21.795    1.0356
   21.960    1.0532
   22.125    1.0356
   22.290    0.9654
   22.455    1.1410
   22.620    1.1761
   22.785    1.1058
   22.950    1.1936
   23.115    0.8601
   23.280    0.9654
   23.445    1.0181
   23.610    0.8777
   23.775    1.1234
   23.940    1.0707
   24.105    1.0181
   24.270    0.9303
   24.435    1.0356
   24.600    1.0181
   24.765    0.9128
   24.930    1.0707
   25.095    0.8952
   25.260    1.0707
   25.425    1.0181
   25.590    1.1234
   25.755    1.0181
   25.920    1.0181
   26.085    0.8952
   26.250    0.9303
   26.415    0.8074
   26.580    0.9654
   26.745    1.0883
   26.910    1.0532
   27.075    0.8777
   27.240    0.9303
   27.405    0.9830
   27.570    0.8425
   27.735    0.9830
   27.900    0.8074
   28.065    1.1058
   28.230    1.0181
   28.395    0.8425
   28.560    0.9654
   28.725    0.8425
   28.890    1.0005
   29.055    0.9303
   29.220    0.9303
   29.385    1.0883
   29.550    0.9128
   29.715    0.9830
   29.880    0.7723
   30.045    0.8074
   30.210    1.0005
   30.375    0.9479
   30.540    0.7723
   30.705    0.8952
   30.870    0.9654
   31.035    0.9128
   31.200    0.9479
   31.365    0.7021
   31.530    0.8425
   31.695    1.1058
   31.860    1.0181
   32.025    0.8601
   32.190    0.8952
   32.355    0.7899
   32.520    0.9303
   32.685    0.7548
   32.850    0.8601
   33.015    0.9654
   33.180    0.7197
   33.345    0.7899
   33.510    1.0005
   33.675    0.8777
   33.840    0.8074
   34.005    0.9479
   34.170    0.7021
   34.335    0.9830
   34.500    0.8777
   34.665    0.8425
   34.830    0.8601
   34.995    0.9830
   35.160    0.7197
   35.325    0.8952
   35.490    0.8601
   35.655    0.7548
   35.820    0.9303
   35.985    0.8425
   36.150    0.8074
   36.315    0.7372
   36.480    0.7899
   36.645    0.6846
   36.810    0.7197
   36.975    0.8250
   37.140    0.7372
   37.305    0.8601
   37.470    0.7197
   37.635    0.9128
   37.800    0.6495
   37.965    0.7197
   38.130    0.7723
   38.295    0.8074
   38.460    0.7899
   38.625    0.8074
   38.790    0.7723
   38.955    0.7372
   39.120    0.7372
   39.285    0.7548
   39.450    0.6846
   39.615    0.6495
   39.780    0.6670
   39.945    0.8601
   40.110    0.8074
   40.275    0.7548
   40.440    0.7723
   40.605    0.7372
   40.770    0.7723
   40.935    0.8250
   41.100    0.7021
   41.265    0.7372
   41.430    0.7197
   41.595    0.8601
   41.760    0.8074
   41.925    0.8777
   42.090    0.8952
   42.255    0.7899
   42.420    0.7548
   42.585    0.8425
   42.750    0.7899
   42.915    0.7548
   43.080    0.8250
   43.245    0.7899
   43.410    0.6319
   43.575    0.8074
   43.740    0.7021
   43.905    0.9303
   44.070    0.8074
   44.235    0.5793
   44.400    0.8250
   44.565    0.7548
   44.730    0.7372
   44.895    0.5266
   45.060    0.9303
   45.225    0.8250
   45.390    0.6495
   45.555    0.6144
   45.720    0.7723
   45.885    0.6495
   46.050    0.8777
   46.215    0.6144
   46.380    0.7548
   46.545    0.6846
   46.710    0.7197
   46.875    0.8250
   47.040    0.7548
   47.205    0.6846
   47.370    0.7548
   47.535    0.8250
   47.700    0.8074
   47.865    0.8250
   48.030    0.7197
   48.195    0.7372
   48.360    0.7899
   48.525    0.7548
   48.690    0.7723
   48.855    0.6846
   49.020    0.8777
   49.185    0.7548
   49.350    0.7021
   49.515    0.9303
   49.680    0.7548
   49.845    0.5793
   49.980    0.7723