File: data/PXRD/PXRD_KE-221-2_Co-Ka1_capillary-1mm_5s-deg.xyd
    1.500   10.3585
    1.635    8.6356
    1.770    7.8438
    1.905    6.4419
    2.040    5.8427
    2.175    5.2113
    2.310    4.7512
    2.445    4.2269
    2.580    3.9807
    2.715    3.8737
    2.850    3.8202
    2.985    3.8309
    3.120    3.7667
    3.255    4.7512
    3.390    5.8106
    3.525    7.1803
    3.660    8.7747
    3.795   12.5201
    3.930   20.0535
    4.065   22.1295
    4.200   12.4987
    4.335   15.0776
    4.470   29.3205
    4.605    9.3847
    4.740    8.2932
    4.875    8.3039
    5.010    5.8855
    5.145    3.5313
    5.280    2.3221
    5.415    1.7442
    5.550    1.4018
    5.685    1.3162
    5.820    1.4018
    5.955    1.2948
    6.090    1.7549
    6.225    2.3221
    6.360    4.2804
    6.495    1.4446
    6.630    1.0273
    6.765    0.9738
    6.900    1.0166
    7.035    0.9417
    7.170    1.0380
    7.305    1.0487
    7.440    0.9845
    7.575    0.9096
    7.710    1.2199
    7.845    1.8192
    7.980    2.3649
    8.115    2.6645
    8.250    1.3697
    8.385    0.8989
    8.520    1.0166
    8.655    1.0166
    8.790    1.1343
    8.925    1.3055
    9.060    2.5575
    9.195    1.0915
    9.330    1.2413
    9.465    1.2092
    9.600    1.5730
    9.735    1.4339
    9.870    1.3055
   10.005    1.4874
   10.140    1.4339
   10.275    1.1129
   10.410    0.8775
   10.545    0.9952
   10.680    0.9203
   10.815    0.9738
   10.950    1.3483
   11.085    2.4184
   11.220    1.0273
   11.355    0.9203
   11.490    0.8454
   11.625    0.7491
   11.760    0.8347
   11.895    0.9524
   12.030    1.8513
   12.165    0.9203
   12.300    0.9310
   12.435    0.8775
   12.570    0.9524
   12.705    0.8989
   12.840    1.4125
   12.975    0.8347
   13.110    0.7705
   13.245    0.6956
   13.380    0.7170
   13.515    0.9524
   13.650    1.7657
   13.785    0.7063
   13.920    0.8347
   14.055    0.8026
   14.190    0.8775
   14.325    0.9524
   14.460    0.8882
   14.595    0.8989
   14.730    0.8454
   14.865    0.9524
   15.000    1.0380
   15.135    1.2520
   15.270    0.8989
   15.405    0.8026
   15.540    0.8240
   15.675    0.6956
   15.810    0.8668
   15.945    0.8561
   16.080    0.7277
   16.215    0.9096
   16.350    0.9631
   16.485    1.0594
   16.620    0.6421
   16.755    0.8454
   16.890    0.6100
   17.025    0.6849
   17.160    0.6849
   17.295    0.5993
   17.430    0.7277
   17.565    0.8240
   17.700    0.9203
   17.835    0.7063
   17.970    0.6742
   18.105    0.6314
   18.240    0.7277
   18.375    0.7705
   18.510    0.6314
   18.645    0.7384
   18.780    0.8989
   18.915    0.6100
   19.050    0.7919
   19.185    0.8775
   19.320    0.7812
   19.455    0.7277
   19.590    0.7598
   19.725    0.8133
   19.860    1.1557
   19.995    0.8347
   20.130    0.6207
   20.265    0.7598
   20.400    0.9310
   20.535    0.8347
   20.670    0.6100
   20.805    0.7277
   20.940    0.7170
   21.075    0.7170
   21.210    0.7705
   21.345    0.7063
   21.480    0.6742
   21.615    0.7277
   21.750    0.6314
   21.885    0.7170
   22.020    0.7705
   22.155    0.6207
   22.290    0.5993
   22.425    0.7170
   22.560    0.6956
   22.695    0.8240
   22.830    0.8347
   22.965    0.9310
   23.100    0.7919
   23.235    0.7919
   23.370    0.7170
   23.505    0.7812
   23.640    0.8882
   23.775    1.1985
   23.910    0.7705
   24.045    0.8882
   24.180    0.8775
   24.315    0.7491
   24.450    0.8882
   24.585    0.8026
   24.720    0.6207
   24.855    0.7491
   24.990    0.8240
   25.125    0.7598
   25.260    0.7170
   25.395    0.7812
   25.530    0.9203
   25.665    0.8775
   25.800    0.8133
   25.935    0.7598
   26.070    0.9310
   26.205    1.0594
   26.340    1.1664
   26.475    0.7384
   26.610    0.8133
   26.745    1.1022
   26.880    0.5886
   27.015    0.7384
   27.150    0.7919
   27.285    0.8133
   27.420    0.7491
   27.555    0.7812
   27.690    0.8240
   27.825    0.7491
   27.960    0.8668
   28.095    0.5993
   28.230    0.8775
   28.365    0.7812
   28.500    0.6421
   28.635    0.8454
   28.770    0.7812
   28.905    0.6742
   29.040    0.5564
   29.175    0.7598
   29.310    0.8240
   29.445    0.7384
   29.580    0.6314
   29.715    0.8240
   29.850    0.6635
   29.985    0.7277
   30.120    0.8882
   30.255    0.7812
   30.390    0.6635
   30.525    0.7384
   30.660    0.5671
   30.795    0.6207
   30.930    0.5136
   31.065    0.6421
   31.200    0.6528
   31.335    0.5457
   31.470    0.6528
   31.605    0.7491
   31.740    0.6849
   31.875    0.7705
   32.010    0.7063
   32.145    0.5778
   32.280    0.6100
   32.415    0.6742
   32.550    0.6100
   32.685    0.6956
   32.820    0.6635
   32.955    0.7812
   33.090    0.6528
   33.225    0.5671
   33.360    0.5671
   33.495    0.5993
   33.630    0.4601
   33.765    0.5243
   33.900    0.5564
   34.035    0.5350
   34.170    0.6849
   34.305    0.6421
   34.440    0.5029
   34.575    0.5243
   34.710    0.5029
   34.845    0.4601
   34.980    0.5136
   35.115    0.3852
   35.250    0.5671
   35.385    0.4815
   35.520    0.4280
   35.655    0.3638
   35.790    0.5029
   35.925    0.4173
   36.060    0.5350
   36.195    0.4708
   36.330    0.4708
   36.465    0.4173
   36.600    0.5029
   36.735    0.5243
   36.870    0.4280
   37.005    0.5350
   37.140    0.5350
   37.275    0.5136
   37.410    0.5350
   37.545    0.4173
   37.680    0.4708
   37.815    0.3745
   37.950    0.4066
   38.085    0.3959
   38.220    0.5350
   38.355    0.4066
   38.490    0.3959
   38.625    0.4815
   38.760    0.4922
   38.895    0.4494
   39.030    0.4494
   39.165    0.3210
   39.300    0.4066
   39.435    0.3424
   39.570    0.4280
   39.705    0.4387
   39.840    0.3210
   39.975    0.3103
   39.990    0.3531