File: data/PXRD/PXRD_KE-162_Cu-Ka1_capillary-1mm_5s-deg.xyd
    1.500   29.8999
    1.635   25.8452
    1.770   23.0437
    1.905   19.9368
    2.040   18.8731
    2.175   16.9774
    2.310   15.8189
    2.445   16.0927
    2.580   15.8083
    2.715   16.0190
    2.850   16.7246
    2.985   18.0621
    3.120   21.3270
    3.255   27.6988
    3.390   38.3886
    3.525   36.1243
    3.660   24.7920
    3.795   31.8062
    3.930   27.4355
    4.065   19.9579
    4.200   15.1659
    4.335   11.4481
    4.470    9.8999
    4.605    9.0258
    4.740    8.3728
    4.875    8.0990
    5.010    8.0885
    5.145    8.3412
    5.280    8.8046
    5.415   10.7846
    5.550    9.0258
    5.685    7.4355
    5.820    6.9826
    5.955    7.1617
    6.090    7.5829
    6.225    7.2880
    6.360    7.4039
    6.495    8.2780
    6.630    8.6677
    6.765    9.6156
    6.900   10.4265
    7.035    9.4681
    7.170    7.7409
    7.305    8.1095
    7.440    7.8252
    7.575    8.3834
    7.710    8.7941
    7.845    8.8678
    7.980    8.4887
    8.115    8.3412
    8.250    8.2464
    8.385    8.2570
    8.520    7.5935
    8.655    8.1201
    8.790    7.6988
    8.925    7.9094
    9.060    7.5619
    9.195    7.6883
    9.330    7.8462
    9.465    8.6993
    9.600    8.4150
    9.735    7.6672
    9.870    7.2143
   10.005    7.3302
   10.140    7.4460
   10.275    8.0885
   10.410    8.0147
   10.545    7.5092
   10.680    7.3828
   10.815    7.1933
   10.950    7.8146
   11.085    7.8252
   11.220    7.2775
   11.355    7.2249
   11.490    6.8773
   11.625    7.3302
   11.760    7.9305
   11.895    7.1090
   12.030    7.0142
   12.165    7.6567
   12.300    7.2775
   12.435    6.8352
   12.570    7.2459
   12.705    7.1301
   12.840    7.2038
   12.975    7.3512
   13.110    7.2565
   13.245    7.3828
   13.380    6.7825
   13.515    7.2775
   13.650    6.6140
   13.785    7.0458
   13.920    6.9510
   14.055    7.4144
   14.190    6.6456
   14.325    6.6983
   14.460    7.1406
   14.595    7.0985
   14.730    7.3512
   14.865    6.9932
   15.000    6.9300
   15.135    6.9826
   15.270    6.9405
   15.405    6.8352
   15.540    7.0563
   15.675    7.1406
   15.810    7.0985
   15.945    7.4250
   16.080    7.9831
   16.215    7.2670
   16.350    7.3723
   16.485    6.7404
   16.620    7.0248
   16.755    6.7825
   16.890    7.1511
   17.025    6.8878
   17.160    7.0142
   17.295    6.9616
   17.430    7.2459
   17.565    6.5929
   17.700    6.8773
   17.835    6.9721
   17.970    6.7825
   18.105    6.6561
   18.240    6.6983
   18.375    6.9510
   18.510    6.8141
   18.645    6.7404
   18.780    7.1195
   18.915    7.3302
   19.050    7.5513
   19.185    6.8457
   19.320    7.2143
   19.455    6.7615
   19.590    6.9932
   19.725    6.8984
   19.860    7.0879
   19.995    7.2354
   20.130    7.1090
   20.265    7.3302
   20.400    7.2038
   20.535    7.0353
   20.670    7.2880
   20.805    7.3407
   20.940    7.1511
   21.075    7.1195
   21.210    7.0774
   21.345    7.5829
   21.480    7.3512
   21.615    7.2565
   21.750    7.5303
   21.885    7.1827
   22.020    7.0248
   22.155    6.7615
   22.290    7.3828
   22.425    7.1090
   22.560    8.0358
   22.695    7.0142
   22.830    7.4039
   22.965    7.2986
   23.100    7.1090
   23.235    7.6567
   23.370    7.1933
   23.505    7.0669
   23.640    7.6461
   23.775    6.9194
   23.910    6.8878
   24.045    7.1933
   24.180    6.8246
   24.315    6.8141
   24.450    7.2670
   24.585    7.1511
   24.720    7.1090
   24.855    6.7088
   24.990    7.0879
   25.125    6.9089
   25.260    6.8036
   25.395    6.8984
   25.530    6.9826
   25.665    6.6035
   25.800    7.1722
   25.935    6.8352
   26.070    6.6561
   26.205    6.8457
   26.340    6.8773
   26.475    6.9405
   26.610    6.8562
   26.745    6.7088
   26.880    6.6351
   27.015    6.5403
   27.150    6.5192
   27.285    6.3086
   27.420    6.5824
   27.555    6.5192
   27.690    6.7825
   27.825    6.3718
   27.960    6.7825
   28.095    6.8878
   28.230    6.8141
   28.365    6.4560
   28.500    6.4666
   28.635    6.6877
   28.770    6.7299
   28.905    6.6140
   29.040    6.7404
   29.175    6.4771
   29.310    6.3402
   29.445    6.2138
   29.580    6.2770
   29.715    6.4034
   29.850    6.3507
   29.985    6.1295
   30.120    6.0769
   30.255    6.3086
   30.390    6.4876
   30.525    6.2665
   30.660    6.4455
   30.795    5.9505
   30.930    6.5824
   31.065    6.2559
   31.200    6.4666
   31.335    6.2981
   31.470    6.2454
   31.605    6.4560
   31.740    6.1611
   31.875    6.8457
   32.010    7.1722
   32.145    7.0774
   32.280    6.3823
   32.415    6.2349
   32.550    6.4034
   32.685    5.8031
   32.820    6.3507
   32.955    6.0032
   33.090    6.0769
   33.225    6.0769
   33.360    5.9400
   33.495    6.1190
   33.630    5.7083
   33.765    6.1822
   33.900    5.6661
   34.035    6.2138
   34.170    6.0032
   34.305    5.9926
   34.440    5.9400
   34.575    6.0348
   34.710    5.8136
   34.845    5.5608
   34.980    5.7399
   35.115    5.5187
   35.250    5.6135
   35.385    6.0242
   35.520    5.4450
   35.655    5.5398
   35.790    5.9294
   35.925    5.8031
   36.060    5.6135
   36.195    5.4976
   36.330    5.4976
   36.465    6.0874
   36.600    5.5819
   36.735    5.5714
   36.870    5.8557
   37.005    5.4976
   37.140    5.6029
   37.275    6.0453
   37.410    5.6872
   37.545    5.6977
   37.680    5.5608
   37.815    5.6029
   37.950    5.3186
   38.085    5.7609
   38.220    6.0137
   38.355    5.6240
   38.490    5.7609
   38.625    5.6451
   38.760    5.6977
   38.895    5.9926
   39.030    5.9400
   39.165    6.0664
   39.300    5.6135
   39.435    5.4134
   39.570    5.4766
   39.705    5.4134
   39.840    5.6135
   39.975    5.6135
   39.990    5.6451