File: data/PXRD/PXRD_KE-063_Cu-Ka1_capillary-1mm_5s-deg.xyd
    1.500   14.4602
    1.635   14.0284
    1.770   13.0279
    1.905   12.2486
    2.040   11.7641
    2.175   10.9953
    2.310   11.1322
    2.445   11.0058
    2.580   12.1854
    2.715   12.4908
    2.850   14.0284
    2.985   15.7767
    3.120   18.4518
    3.255   22.4223
    3.390   28.7520
    3.525   37.6725
    3.660   54.4497
    3.795   93.9652
    3.930  191.5113
    4.065    7.5303
    4.200    6.6983
    4.335    6.0874
    4.470    6.4666
    4.605    6.8878
    4.740    7.4250
    4.875    7.8673
    5.010    9.3102
    5.145   12.2275
    5.280   17.6830
    5.415   29.8999
    5.550   60.9689
    5.685    5.4555
    5.820    5.7925
    5.955    5.3607
    6.090    6.1085
    6.225    5.7609
    6.360    6.8246
    6.495    8.1727
    6.630   10.3423
    6.765   22.3697
    6.900    5.6661
    7.035    5.5082
    7.170    5.5608
    7.305    5.3502
    7.440    6.1085
    7.575    6.9616
    7.710    9.5103
    7.845   16.3876
    7.980    5.0869
    8.115    5.0448
    8.250    5.1185
    8.385    5.1290
    8.520    5.2765
    8.655    5.8241
    8.790    5.7925
    8.925    4.7288
    9.060    5.5608
    9.195    6.1401
    9.330    7.7514
    9.465   12.8910
    9.600   30.3949
    9.735    4.8868
    9.870    4.9605
   10.005    5.4555
   10.140    6.3402
   10.275    8.5624
   10.410    8.9626
   10.545    4.7920
   10.680    4.8236
   10.815    5.2449
   10.950    6.3823
   11.085   11.6061
   11.220    4.7077
   11.355    4.7183
   11.490    5.4134
   11.625    7.5935
   11.760   13.5861
   11.895    4.4444
   12.030    4.6972
   12.165    4.8657
   12.300    5.0658
   12.435    5.0448
   12.570    4.6656
   12.705    4.8236
   12.840    5.7399
   12.975    9.2470
   13.110    4.6340
   13.245    4.8763
   13.380    5.0553
   13.515    6.3612
   13.650    5.0448
   13.785    4.5392
   13.920    5.1711
   14.055    6.5192
   14.190    7.1933
   14.325    4.5498
   14.460    4.4128
   14.595    4.8341
   14.730    4.0758
   14.865    4.8868
   15.000    4.6130
   15.135    5.4450
   15.270    4.3075
   15.405    4.5287
   15.540    4.4655
   15.675    4.7920
   15.810    4.3391
   15.945    4.6445
   16.080    5.2554
   16.215    5.0658
   16.350    4.5287
   16.485    4.6551
   16.620    5.6451
   16.755    4.6235
   16.890    4.5498
   17.025    6.6140
   17.160    7.0774
   17.295    4.3707
   17.430    4.7077
   17.565    5.7925
   17.700    4.9816
   17.835    4.5814
   17.970    5.2975
   18.105    4.8236
   18.240    4.5392
   18.375    5.4028
   18.510    4.5708
   18.645    4.5603
   18.780    5.2133
   18.915    5.5082
   19.050    5.4976
   19.185    4.6972
   19.320    4.6130
   19.455    4.8131
   19.590    5.3712
   19.725    5.1606
   19.860    4.7815
   19.995    4.4128
   20.130    4.8552
   20.265    4.9921
   20.400    7.4460
   20.535    4.5814
   20.670    4.7920
   20.805    5.1606
   20.940    4.6761
   21.075    4.7709
   21.210    4.9289
   21.345    4.6235
   21.480    5.0553
   21.615    4.8236
   21.750    4.8131
   21.885    5.6345
   22.020    4.9289
   22.155    5.1290
   22.290    5.6872
   22.425    4.9500
   22.560    7.3618
   22.695    5.8452
   22.830    5.6240
   22.965    8.3518
   23.100    5.2133
   23.235    5.4239
   23.370    5.3291
   23.505    5.2765
   23.640    5.1290
   23.775    4.7077
   23.910    5.7715
   24.045    5.2554
   24.180    4.8552
   24.315    4.7604
   24.450    4.6867
   24.585    5.2554
   24.720    5.0342
   24.855    4.7920
   24.990    4.8025
   25.125    4.9394
   25.260    5.1080
   25.395    4.6340
   25.530    4.9816
   25.665    4.6972
   25.800    6.4244
   25.935    5.9505
   26.070    4.9500
   26.205    4.9078
   26.340    4.5182
   26.475    5.3712
   26.610    4.4655
   26.745    4.1706
   26.880    4.5498
   27.015    5.3081
   27.150    4.9605
   27.285    4.5392
   27.420    4.1811
   27.555    4.5392
   27.690    5.0658
   27.825    4.2970
   27.960    5.0869
   28.095    5.1290
   28.230    5.2870
   28.365    4.7077
   28.500    5.4028
   28.635    4.3813
   28.770    4.5076
   28.905    4.6024
   29.040    5.3186
   29.175    4.7815
   29.310    4.8236
   29.445    4.4234
   29.580    4.3918
   29.715    4.3181
   29.850    4.9500
   29.985    4.6445
   30.120    4.4234
   30.255    4.0758
   30.390    4.5603
   30.525    3.9600
   30.660    4.2022
   30.795    4.0864
   30.930    4.3813
   31.065    4.2127
   31.200    4.3181
   31.335    4.0758
   31.470    4.5708
   31.605    4.2022
   31.740    4.1074
   31.875    4.3707
   32.010    4.4866
   32.145    5.5924
   32.280    4.0758
   32.415    3.9073
   32.550    3.7072
   32.685    3.8231
   32.820    3.9073
   32.955    4.0548
   33.090    3.8020
   33.225    3.5071
   33.360    3.9284
   33.495    3.9916
   33.630    3.7809
   33.765    4.1180
   33.900    4.6867
   34.035    3.8652
   34.170    3.6651
   34.305    3.7493
   34.440    3.4650
   34.575    3.5492
   34.710    3.4123
   34.845    3.6440
   34.980    3.8125
   35.115    3.2965
   35.250    3.6124
   35.385    3.3281
   35.520    3.3913
   35.655    3.5492
   35.790    3.6124
   35.925    3.6862
   36.060    3.4439
   36.195    3.4650
   36.330    3.6019
   36.465    3.2859
   36.600    3.6756
   36.735    3.5071
   36.870    3.3175
   37.005    3.2754
   37.140    3.7388
   37.275    3.5071
   37.410    3.3807
   37.545    3.2017
   37.680    3.4966
   37.815    3.3807
   37.950    3.1280
   38.085    3.3491
   38.220    3.1174
   38.355    3.6019
   38.490    3.2438
   38.625    3.5387
   38.760    3.2438
   38.895    3.0753
   39.030    3.1806
   39.165    3.4755
   39.300    3.0858
   39.435    3.2859
   39.570    3.0648
   39.705    3.4544
   39.840    3.2438
   39.975    3.2543
   39.990    3.5598