File: data/PXRD/PXRD_KE-202_Cu-Ka1_capillary-1mm_5s-deg.xyd
    1.500   17.5671
    1.635   16.8931
    1.770   14.5761
    1.905   12.7751
    2.040   11.7641
    2.175   10.9426
    2.310   10.2159
    2.445    9.3312
    2.580    9.4997
    2.715    8.9731
    2.850    9.3207
    2.985   10.6056
    3.120   12.4592
    3.255   17.5987
    3.390   28.4360
    3.525   37.5777
    3.660   61.5061
    3.795  160.0211
    3.930   23.6967
    4.065    9.9210
    4.200    8.6572
    4.335    6.6772
    4.470    6.0453
    4.605    5.5714
    4.740    5.4450
    4.875    5.3923
    5.010    6.3191
    5.145    8.4781
    5.280   15.0606
    5.415   41.8220
    5.550    8.9415
    5.685    4.3813
    5.820    4.6024
    5.955    4.7077
    6.090    4.5708
    6.225    4.6867
    6.360    4.8236
    6.495    6.0558
    6.630    9.8262
    6.765   12.0379
    6.900    5.2449
    7.035    5.0553
    7.170    4.2759
    7.305    4.4339
    7.440    4.3602
    7.575    5.6135
    7.710   11.2270
    7.845    5.0342
    7.980    4.2549
    8.115    4.2022
    8.250    4.4655
    8.385    4.4866
    8.520    4.8131
    8.655    5.1395
    8.790    3.8441
    8.925    3.9389
    9.060    4.0442
    9.195    3.9705
    9.330    5.7820
    9.465   15.5345
    9.600    7.8884
    9.735    3.9284
    9.870    3.7177
   10.005    3.8547
   10.140    5.0974
   10.275   12.3223
   10.410    3.7599
   10.545    4.0232
   10.680    3.8231
   10.815    4.2127
   10.950    7.2038
   11.085    5.4239
   11.220    3.8863
   11.355    3.6546
   11.490    3.8547
   11.625    7.4566
   11.760    5.3397
   11.895    3.7072
   12.030    3.5598
   12.165    3.7493
   12.300    4.8236
   12.435    3.9284
   12.570    3.6862
   12.705    3.6230
   12.840    4.4760
   12.975    7.4460
   13.110    3.6230
   13.245    3.5176
   13.380    3.9600
   13.515    7.1933
   13.650    3.7493
   13.785    3.7809
   13.920    3.9179
   14.055    8.3623
   14.190    3.4860
   14.325    3.5071
   14.460    3.5914
   14.595    3.6967
   14.730    3.4018
   14.865    3.6440
   15.000    3.3807
   15.135    4.6761
   15.270    3.4755
   15.405    3.4966
   15.540    3.4229
   15.675    3.7915
   15.810    3.9179
   15.945    3.3807
   16.080    4.3918
   16.215    3.5808
   16.350    3.5808
   16.485    3.8547
   16.620    4.7499
   16.755    3.3175
   16.890    3.7599
   17.025    7.5619
   17.160    3.4334
   17.295    3.5703
   17.430    3.7809
   17.565    3.6546
   17.700    3.4229
   17.835    3.7072
   17.970    4.4971
   18.105    3.7599
   18.240    3.7493
   18.375    5.2238
   18.510    3.6756
   18.645    3.3070
   18.780    4.2654
   18.915    3.6967
   19.050    3.7809
   19.185    3.7388
   19.320    3.3386
   19.455    3.4123
   19.590    5.1606
   19.725    3.7072
   19.860    3.6651
   19.995    3.7704
   20.130    3.6335
   20.265    3.8336
   20.400    6.4244
   20.535    3.6124
   20.670    3.8336
   20.805    4.0021
   20.940    3.6756
   21.075    3.6124
   21.210    3.6756
   21.345    3.7704
   21.480    3.5808
   21.615    3.4966
   21.750    3.7072
   21.885    4.7499
   22.020    3.6756
   22.155    4.5498
   22.290    3.9073
   22.425    3.7704
   22.560    7.4144
   22.695    3.8757
   22.830    5.2238
   22.965    4.8447
   23.100    4.0021
   23.235    5.0764
   23.370    3.8863
   23.505    3.4650
   23.640    3.8652
   23.775    3.4860
   23.910    4.8657
   24.045    3.7283
   24.180    3.5808
   24.315    3.9073
   24.450    3.8757
   24.585    3.6967
   24.720    3.5914
   24.855    3.5808
   24.990    3.3597
   25.125    3.9916
   25.260    3.7915
   25.395    3.5071
   25.530    4.1706
   25.665    3.3913
   25.800    6.4982
   25.935    3.4018
   26.070    3.6440
   26.205    3.5598
   26.340    4.0126
   26.475    3.9600
   26.610    3.2122
   26.745    3.4755
   26.880    3.4966
   27.015    4.7920
   27.150    3.5387
   27.285    3.5176
   27.420    3.4755
   27.555    4.0126
   27.690    3.2543
   27.825    3.8020
   27.960    4.3181
   28.095    4.0969
   28.230    3.8020
   28.365    3.7915
   28.500    3.9600
   28.635    3.2543
   28.770    3.1174
   28.905    3.8968
   29.040    3.6019
   29.175    3.6019
   29.310    3.9916
   29.445    3.4755
   29.580    2.9910
   29.715    3.4229
   29.850    3.4966
   29.985    3.2543
   30.120    3.6756
   30.255    3.4755
   30.390    3.5598
   30.525    3.6862
   30.660    3.4966
   30.795    3.0437
   30.930    3.3281
   31.065    3.3175
   31.200    3.2649
   31.335    3.4650
   31.470    3.3807
   31.605    3.4860
   31.740    3.4966
   31.875    3.7809
   32.010    4.0864
   32.145    4.2127
   32.280    3.2543
   32.415    3.2543
   32.550    3.1174
   32.685    3.2017
   32.820    3.2438
   32.955    3.1701
   33.090    3.0858
   33.225    3.3702
   33.360    3.3281
   33.495    3.0542
   33.630    2.9805
   33.765    3.8547
   33.900    3.9916
   34.035    2.9805
   34.170    3.2859
   34.305    3.3175
   34.440    2.8436
   34.575    3.0648
   34.710    2.9910
   34.845    3.2438
   34.980    2.7067
   35.115    2.9805
   35.250    3.2333
   35.385    2.7804
   35.520    2.9595
   35.655    3.0437
   35.790    3.2227
   35.925    3.0332
   36.060    2.7488
   36.195    2.9384
   36.330    2.8647
   36.465    2.9595
   36.600    3.1280
   36.735    2.9805
   36.870    2.9384
   37.005    3.1174
   37.140    2.7488
   37.275    2.9279
   37.410    2.7699
   37.545    3.0332
   37.680    2.9700
   37.815    3.0753
   37.950    2.8752
   38.085    2.9910
   38.220    2.9068
   38.355    2.8752
   38.490    2.9279
   38.625    3.4860
   38.760    2.9489
   38.895    2.7067
   39.030    2.7699
   39.165    3.1701
   39.300    3.0858
   39.435    2.8015
   39.570    2.9279
   39.705    3.1596
   39.840    3.0542
   39.975    3.0016
   39.990    2.9595