File: data/PXRD/PXRD_KE-321C_Cu-Ka1_capillary-1mm_3s-deg_collimator-back.xyd
    1.500   27.1371
    1.575   24.2408
    1.650   23.5738
    1.725   21.2919
    1.800   19.3786
    1.875   17.8515
    1.950   16.8861
    2.025   15.7100
    2.100   13.8845
    2.175   13.2877
    2.250   13.1473
    2.325   11.8483
    2.400   11.4797
    2.475   10.5319
    2.550   11.7430
    2.625   10.9180
    2.700   10.9356
    2.775   10.7600
    2.850   11.1111
    2.925   11.0233
    3.000   11.1813
    3.075   11.8483
    3.150   11.7079
    3.225   12.9366
    3.300   13.9723
    3.375   15.9031
    3.450   17.7462
    3.525   20.4669
    3.600   24.8201
    3.675   30.9988
    3.750   43.1631
    3.825   72.9331
    3.900   36.4753
    3.975   10.2861
    4.050    7.1266
    4.125    6.8282
    4.200    6.3718
    4.275    6.1962
    4.350    6.1085
    4.425    5.9154
    4.500    6.0032
    4.575    6.0383
    4.650    6.0383
    4.725    5.7399
    4.800    6.5473
    4.875    6.8457
    4.950    6.9335
    5.025    7.1617
    5.100    8.2149
    5.175    8.5308
    5.250   10.4792
    5.325   12.8313
    5.400   17.7813
    5.475   25.3467
    5.550    9.1803
    5.625    5.4590
    5.700    5.4239
    5.775    5.1431
    5.850    5.4064
    5.925    5.0728
    6.000    5.3010
    6.075    5.2659
    6.150    4.6165
    6.225    5.4064
    6.300    5.3186
    6.375    5.9329
    6.450    6.3718
    6.525    6.4595
    6.600    7.9691
    6.675   11.7781
    6.750   10.4441
    6.825    5.3010
    6.900    4.8973
    6.975    4.6691
    7.050    4.8622
    7.125    4.7569
    7.200    5.0377
    7.275    4.7393
    7.350    5.2835
    7.425    4.5287
    7.500    5.5117
    7.575    5.3186
    7.650    6.3542
    7.725    7.7585
    7.800    6.9159
    7.875    5.1957
    7.950    4.5463
    8.025    4.8095
    8.100    4.5814
    8.175    4.2303
    8.250    4.6867
    8.325    4.4760
    8.400    5.0202
    8.475    5.1606
    8.550    4.4585
    8.625    5.1431
    8.700    5.2659
    8.775    4.6340
    8.850    4.7218
    8.925    4.6165
    9.000    5.0553
    9.075    4.9851
    9.150    5.1606
    9.225    5.0728
    9.300    5.5468
    9.375    6.2665
    9.450    8.3728
    9.525   10.9180
    9.600    6.8282
    9.675    5.2308
    9.750    5.3361
    9.825    4.1250
    9.900    5.1957
    9.975    5.3712
   10.050    5.0026
   10.125    5.3888
   10.200    5.7048
   10.275    7.3372
   10.350    5.8101
   10.425    4.8095
   10.500    4.7744
   10.575    4.8798
   10.650    4.7393
   10.725    4.5111
   10.800    4.9675
   10.875    5.0026
   10.950    5.9154
   11.025    6.3542
   11.100    5.1431
   11.175    4.3883
   11.250    4.5287
   11.325    4.3532
   11.400    4.8095
   11.475    5.0553
   11.550    5.3361
   11.625    6.6000
   11.700    6.5649
   11.775    5.1431
   11.850    4.5111
   11.925    4.3005
   12.000    4.5989
   12.075    4.5814
   12.150    4.0899
   12.225    4.4234
   12.300    4.4936
   12.375    3.8266
   12.450    4.6165
   12.525    4.4058
   12.600    4.0372
   12.675    4.4058
   12.750    4.8973
   12.825    4.9149
   12.900    5.8452
   12.975    5.6521
   13.050    4.6516
   13.125    4.3532
   13.200    4.5814
   13.275    3.8968
   13.350    4.2127
   13.425    4.4760
   13.500    4.3707
   13.575    4.5111
   13.650    4.1425
   13.725    4.1601
   13.800    4.1074
   13.875    4.1776
   13.950    4.4409
   14.025    4.6867
   14.100    4.8798
   14.175    4.4585
   14.250    4.2654
   14.325    3.8968
   14.400    4.1074
   14.475    3.7564
   14.550    4.1250
   14.625    3.7915
   14.700    3.9494
   14.775    4.3356
   14.850    4.1952
   14.925    4.0723
   15.000    3.9494
   15.075    4.0548
   15.150    4.8271
   15.225    3.8090
   15.300    4.1074
   15.375    3.8090
   15.450    3.8617
   15.525    4.3356
   15.600    3.8266
   15.675    4.0723
   15.750    3.9494
   15.825    3.8792
   15.900    4.2654
   15.975    4.3707
   16.050    3.7213
   16.125    4.2127
   16.200    4.3883
   16.275    4.3356
   16.350    4.2654
   16.425    4.1074
   16.500    4.2303
   16.575    4.0372
   16.650    4.0899
   16.725    3.9670
   16.800    4.1952
   16.875    4.1601
   16.950    4.7042
   17.025    5.1080
   17.100    4.7920
   17.175    4.0548
   17.250    4.1074
   17.325    4.3356
   17.400    4.2478
   17.475    4.4409
   17.550    4.2127
   17.625    4.2654
   17.700    4.0723
   17.775    4.3181
   17.850    4.0021
   17.925    4.4585
   18.000    4.2830
   18.075    3.9670
   18.150    4.3356
   18.225    3.6686
   18.300    4.0899
   18.375    4.1601
   18.450    4.3181
   18.525    4.0372
   18.600    3.9846
   18.675    4.0372
   18.750    3.9319
   18.825    4.1250
   18.900    4.4585
   18.975    4.1074
   19.050    3.8968
   19.125    4.3181
   19.200    4.2830
   19.275    3.8968
   19.350    3.8968
   19.425    4.0899
   19.500    3.9319
   19.575    4.3181
   19.650    4.0197
   19.725    3.9846
   19.800    4.1425
   19.875    4.0197
   19.950    4.3356
   20.025    4.1952
   20.100    4.3356
   20.175    3.7564
   20.250    4.5638
   20.325    4.8973
   20.400    4.7218
   20.475    4.3005
   20.550    3.8441
   20.625    4.0197
   20.700    4.0548
   20.775    4.0548
   20.835    4.4585