File: data/PXRD/PXRD_KE-332_Cu-Ka1_capillary-1mm_3s-deg.xyd
    1.500   11.6202
    1.665   10.7425
    1.830   10.2159
    1.995    9.4787
    2.160    9.7771
    2.325    9.8473
    2.490   10.9882
    2.655   11.7781
    2.820   12.7787
    2.985   15.2887
    3.150   18.5361
    3.315   25.0658
    3.480   36.2471
    3.645   62.3486
    3.810  167.1582
    3.975    7.8989
    4.140    5.7399
    4.305    5.6521
    4.470    6.1260
    4.635    6.8808
    4.800    7.2670
    4.965    9.7069
    5.130   13.7265
    5.295   24.2584
    5.460   69.0714
    5.625    5.0202
    5.790    4.6340
    5.955    4.8447
    6.120    4.9149
    6.285    5.7399
    6.450    7.1441
    6.615   13.0946
    6.780    6.1260
    6.945    4.0372
    7.110    4.8447
    7.275    4.8447
    7.440    5.9505
    7.605    7.4601
    7.770   15.0079
    7.935    4.1952
    8.100    4.2830
    8.265    4.1250
    8.430    3.7037
    8.595    4.9851
    8.760    3.8968
    8.925    4.1952
    9.090    4.7218
    9.255    7.2319
    9.420   14.6217
    9.585    8.2851
    9.750    4.2303
    9.915    4.0723
   10.080    5.4590
   10.245   10.4968
   10.410    4.0197
   10.575    4.2127
   10.740    4.9851
   10.905    7.3196
   11.070    5.5117
   11.235    3.9319
   11.400    4.5638
   11.565    6.2489
   11.730    6.8457
   11.895    3.9494
   12.060    3.7739
   12.225    4.3883
   12.390    3.8617
   12.555    4.0021
   12.720    4.7744
   12.885    8.4430
   13.050    3.6862
   13.215    3.5984
   13.380    4.9149
   13.545    4.8271
   13.710    3.7213
   13.875    4.0372
   14.040    8.0218
   14.205    4.0021
   14.370    4.3181
   14.535    3.6862
   14.700    3.3877
   14.865    3.3702
   15.030    3.7915
   15.195    4.1425
   15.360    3.3702
   15.525    3.6159
   15.690    3.4053
   15.855    3.5633
   16.020    4.5989
   16.185    3.7915
   16.350    3.6335
   16.515    4.4058
   16.680    3.8090
   16.845    4.2303
   17.010    7.8813
   17.175    3.8792
   17.340    3.3526
   17.505    4.8271
   17.670    3.5633
   17.835    4.0197
   18.000    3.9494
   18.165    3.8968
   18.330    4.4585
   18.495    3.8266
   18.660    4.1074
   18.825    3.5984
   18.990    3.8792
   19.155    3.7213
   19.320    3.7915
   19.485    4.4058
   19.650    3.7739
   19.815    3.8792
   19.980    3.6335
   20.145    4.0723
   20.310    6.4420
   20.475    3.5808
   20.640    3.8266
   20.805    3.5282
   20.970    3.7213
   21.135    3.5984
   21.300    3.8090
   21.465    3.6335
   21.630    3.8441
   21.795    4.8447
   21.960    3.6510
   22.125    4.4234
   22.290    3.6862
   22.455    5.6697
   22.620    4.0372
   22.785    5.4239
   22.950    4.4936
   23.115    4.3005
   23.280    4.1250
   23.445    3.4580
   23.610    3.6159
   23.775    4.2303
   23.940    3.8266
   24.105    3.7739
   24.270    3.8617
   24.435    3.9143
   24.600    3.8792
   24.765    3.8090
   24.930    3.3000
   25.095    3.6510
   25.260    3.5457
   25.425    4.2127
   25.590    3.5633
   25.755    5.8978
   25.920    3.5457
   26.085    3.7388
   26.250    3.5282
   26.415    4.4058
   26.580    3.8441
   26.745    3.5633
   26.910    3.7388
   27.075    3.4404
   27.240    3.2473
   27.405    3.7915
   27.570    4.2654
   27.735    3.5106
   27.900    3.4053
   28.065    3.8968
   28.230    3.5808
   28.395    4.2127
   28.560    3.3702
   28.725    3.5106
   28.890    3.5457
   29.055    3.3877
   29.220    3.6510
   29.385    2.6681
   29.550    3.3526
   29.715    3.7739
   29.880    3.5633
   30.045    3.3175
   30.210    3.3175
   30.375    3.8266
   30.540    4.0372
   30.705    3.3526
   30.870    3.3526
   31.035    3.0367
   31.200    2.9314
   31.365    3.7213
   31.530    3.2824
   31.695    3.4229
   31.860    3.2473
   32.025    3.4755
   32.190    3.3000
   32.355    3.0191
   32.520    3.0367
   32.685    3.2824
   32.850    3.6686
   33.015    3.2298
   33.180    2.8085
   33.345    3.0367
   33.510    3.2649
   33.675    3.1947
   33.840    3.5633
   34.005    3.0367
   34.170    3.1069
   34.335    3.0893
   34.500    2.6505
   34.665    3.1771
   34.830    2.6856
   34.995    2.9665
   35.160    3.0893
   35.325    3.0016
   35.490    3.1420
   35.655    2.8787
   35.820    2.8787
   35.985    3.1947
   36.150    2.8787
   36.315    2.8085
   36.480    2.6856
   36.645    2.8787
   36.810    2.7558
   36.975    3.4404
   37.140    2.7734
   37.305    2.6154
   37.470    2.6154
   37.635    2.8260
   37.800    2.8612
   37.965    2.8787
   38.130    2.7032
   38.295    3.1069
   38.460    2.5803
   38.625    2.7909
   38.790    3.1596
   38.955    2.8436
   39.120    3.0016
   39.285    2.7032
   39.450    2.7207
   39.615    2.8085
   39.780    2.6681
   39.945    2.7734
   40.110    2.8260
   40.275    3.0191
   40.440    3.0016
   40.605    2.6154
   40.770    3.0191
   40.935    2.7032
   41.100    2.5979
   41.265    2.9489
   41.430    2.8787
   41.595    2.3346
   41.760    2.8963
   41.925    2.8436
   42.090    2.6681
   42.255    2.4925
   42.420    2.7032
   42.585    2.4048
   42.750    3.1069
   42.915    3.0542
   43.080    2.8260
   43.245    3.1596
   43.410    2.7207
   43.575    2.9314
   43.740    2.5452
   43.905    2.4574
   44.070    2.8963
   44.235    2.5276
   44.400    2.5628
   44.565    2.4750
   44.730    2.8612
   44.895    2.4048
   45.060    2.9840
   45.225    2.8963
   45.390    2.9314
   45.555    2.5276
   45.720    2.4925
   45.885    2.5628
   46.050    3.1420
   46.215    2.7734
   46.380    2.7558
   46.545    2.6681
   46.710    2.5276
   46.875    2.3521
   47.040    2.6856
   47.205    2.4925
   47.370    2.5803
   47.535    2.6330
   47.700    2.6330
   47.865    2.2643
   48.030    2.6681
   48.195    2.5979
   48.360    2.4048
   48.525    2.5628
   48.690    2.4574
   48.855    2.8436
   49.020    2.6330
   49.185    2.2995
   49.350    2.5101
   49.515    2.4925
   49.680    2.2819
   49.845    2.4574
   49.980    2.7909