File: data/PXRD/PXRD_KE-305-4E_Cu-Ka1_capillary-1mm_3s-deg.xyd
    1.500   16.5350
    1.665   14.3760
    1.830   13.0420
    1.995   11.6202
    2.160   11.0936
    2.325    9.8824
    2.490   10.9707
    2.655   11.2164
    2.820   12.3749
    2.985   13.7090
    3.150   17.8164
    3.315   22.3626
    3.480   31.8413
    3.645   52.1327
    3.810  134.7376
    3.975    8.7239
    4.140    6.2138
    4.305    5.7574
    4.470    6.0909
    4.635    5.7750
    4.800    7.4250
    4.965    8.9521
    5.130   11.9186
    5.295   20.8706
    5.460   60.2598
    5.625    5.9329
    5.790    5.3186
    5.955    4.7042
    6.120    4.8622
    6.285    5.3010
    6.450    6.6526
    6.615   11.3569
    6.780    9.1101
    6.945    4.6340
    7.110    4.7744
    7.275    4.7393
    7.440    5.2308
    7.605    7.1441
    7.770   13.7967
    7.935    4.1074
    8.100    3.9670
    8.265    4.2478
    8.430    4.3707
    8.595    4.8095
    8.760    4.1601
    8.925    3.6862
    9.090    4.8271
    9.255    6.3191
    9.420   11.4095
    9.585   12.2521
    9.750    4.0899
    9.915    4.3883
   10.080    5.0202
   10.245    8.8819
   10.410    4.3181
   10.575    3.9319
   10.740    4.2654
   10.905    5.4941
   11.070    7.0915
   11.235    4.0021
   11.400    4.1425
   11.565    6.0734
   11.730    8.1797
   11.895    4.0723
   12.060    4.0021
   12.225    4.0548
   12.390    4.1074
   12.555    4.1074
   12.720    3.8792
   12.885    6.3893
   13.050    3.7739
   13.215    3.5984
   13.380    4.2830
   13.545    5.1080
   13.710    3.9494
   13.875    3.9846
   14.040    7.0739
   14.205    3.9670
   14.370    3.7388
   14.535    3.3877
   14.700    3.9143
   14.865    3.6159
   15.030    3.5457
   15.195    3.9319
   15.360    3.5808
   15.525    3.5282
   15.690    3.6510
   15.855    3.7564
   16.020    4.2127
   16.185    4.0021
   16.350    3.7037
   16.515    3.8792
   16.680    4.0021
   16.845    3.8617
   17.010    6.2138
   17.175    3.5984
   17.340    3.6159
   17.505    4.5814
   17.670    3.5808
   17.835    3.8617
   18.000    4.3005
   18.165    3.6159
   18.330    4.1250
   18.495    3.7388
   18.660    3.7388
   18.825    3.7388
   18.990    3.4755
   19.155    3.3175
   19.320    3.8266
   19.485    4.0548
   19.650    3.9319
   19.815    3.6335
   19.980    3.7739
   20.145    4.1074
   20.310    5.0202
   20.475    4.1952
   20.640    4.1776
   20.805    3.5282
   20.970    3.7564
   21.135    3.7388
   21.300    3.9670
   21.465    3.4229
   21.630    3.9494
   21.795    4.1425
   21.960    4.0372
   22.125    3.8968
   22.290    3.8617
   22.455    4.2654
   22.620    5.7399
   22.785    4.1952
   22.950    5.3010
   23.115    3.9670
   23.280    4.1952
   23.445    3.6335
   23.610    3.5808
   23.775    3.7564
   23.940    4.1250
   24.105    3.8090
   24.270    3.8266
   24.435    3.5457
   24.600    3.9319
   24.765    3.8090
   24.930    3.9143
   25.095    3.5106
   25.260    4.0021
   25.425    3.4931
   25.590    3.7213
   25.755    5.0026
   25.920    3.9319
   26.085    3.7037
   26.250    3.3175
   26.415    4.2127
   26.580    3.0542
   26.745    3.3526
   26.910    3.3877
   27.075    4.0723
   27.240    3.5457
   27.405    3.6510
   27.570    3.4053
   27.735    3.4053
   27.900    3.4229
   28.065    4.0372
   28.230    4.2830
   28.395    3.5633
   28.560    3.5808
   28.725    3.3702
   28.890    3.1947
   29.055    3.5984
   29.220    3.4053
   29.385    3.8090
   29.550    3.4580
   29.715    3.5633
   29.880    3.5457
   30.045    3.4229
   30.210    3.6510
   30.375    3.4404
   30.540    3.7213
   30.705    3.3351
   30.870    3.2473
   31.035    3.0367
   31.200    2.9489
   31.365    3.0191
   31.530    3.3175
   31.695    3.5106
   31.860    3.3175
   32.025    3.2649
   32.190    3.2824
   32.355    2.8436
   32.520    3.1069
   32.685    3.1420
   32.850    3.3702
   33.015    3.2298
   33.180    2.9489
   33.345    2.9840
   33.510    2.8963
   33.675    3.2824
   33.840    3.1245
   34.005    3.2122
   34.170    3.3000
   34.335    3.3351
   34.500    3.3702
   34.665    3.0191
   34.830    3.3175
   34.995    3.0016
   35.160    2.8787
   35.325    2.8612
   35.490    2.7909
   35.655    2.4399
   35.820    2.8787
   35.985    2.9489
   36.150    2.8085
   36.315    3.0542
   36.480    2.8260
   36.645    2.8787
   36.810    2.5979
   36.975    2.5628
   37.140    2.7207
   37.305    2.7734
   37.470    2.6505
   37.635    2.5101
   37.800    2.7383
   37.965    2.6505
   38.130    2.7207
   38.295    2.7032
   38.460    2.5452
   38.625    2.3697
   38.790    2.4925
   38.955    2.6154
   39.120    2.3872
   39.285    2.4574
   39.450    2.7558
   39.615    2.9314
   39.780    2.7558
   39.945    2.8787
   40.110    2.7734
   40.275    2.7734
   40.440    3.0016
   40.605    2.6505
   40.770    2.4925
   40.935    2.5628
   41.100    2.4399
   41.265    2.6154
   41.430    2.5803
   41.595    2.5101
   41.760    2.4399
   41.925    2.6856
   42.090    2.6154
   42.255    2.4750
   42.420    2.5101
   42.585    2.4048
   42.750    2.7558
   42.915    2.5101
   43.080    2.6856
   43.245    2.7734
   43.410    2.5276
   43.575    2.7558
   43.740    2.4750
   43.905    2.7734
   44.070    2.5628
   44.235    2.6154
   44.400    2.5628
   44.565    2.5803
   44.730    2.5803
   44.895    2.6154
   45.060    2.5276
   45.225    2.7207
   45.390    2.5276
   45.555    2.6505
   45.720    2.5803
   45.885    2.4925
   46.050    2.3346
   46.215    2.6154
   46.380    2.3346
   46.545    2.4048
   46.710    2.5452
   46.875    2.7207
   47.040    2.2819
   47.205    2.4750
   47.370    2.4223
   47.535    2.5276
   47.700    2.5101
   47.865    2.4223
   48.030    2.4925
   48.195    2.2819
   48.360    2.4399
   48.525    2.9138
   48.690    2.4048
   48.855    2.3872
   49.020    2.4223
   49.185    2.2468
   49.350    2.4399
   49.515    2.5452
   49.680    2.1415
   49.845    2.2819
   49.980    2.0011