File: data/PXRD/PXRD_KE-125_Cu-Ka1_capillary-1mm_5s-deg.xyd
    1.500   16.6614
    1.635   15.7662
    1.770   15.1659
    1.905   14.7130
    2.040   15.1237
    2.175   15.4608
    2.310   16.1875
    2.445   18.1148
    2.580   19.4418
    2.715   23.5914
    2.850   28.6572
    2.985   35.3555
    3.120   46.6772
    3.255   67.4987
    3.390  115.3660
    3.525   89.4997
    3.660   40.6424
    3.795   45.2765
    3.930   55.7873
    4.065   53.6809
    4.200   35.4397
    4.335   20.0737
    4.470   11.8694
    4.605    8.9205
    4.740    8.3307
    4.875    6.9826
    5.010    6.8562
    5.145    6.3296
    5.280    6.7825
    5.415    6.2138
    5.550    6.2033
    5.685    5.8978
    5.820    5.6029
    5.955    5.6556
    6.090    6.1506
    6.225    5.7715
    6.360    6.0558
    6.495    6.7404
    6.630    7.7409
    6.765   10.4581
    6.900   15.6819
    7.035   13.1648
    7.170    7.2670
    7.305    6.6351
    7.440    6.5087
    7.575    6.8036
    7.710    7.3723
    7.845    8.5624
    7.980    8.9942
    8.115    9.9947
    8.250    9.1311
    8.385    8.1727
    8.520    8.0358
    8.655    6.9089
    8.790    6.0664
    8.925    6.2349
    9.060    5.3712
    9.195    5.6345
    9.330    5.6661
    9.465    5.3923
    9.600    5.5714
    9.735    5.4134
    9.870    5.2975
   10.005    5.6767
   10.140    5.6240
   10.275    5.6029
   10.410    6.3191
   10.545    6.2349
   10.680    5.2554
   10.815    5.7293
   10.950    5.3186
   11.085    5.5714
   11.220    5.4450
   11.355    5.1606
   11.490    5.8768
   11.625    6.0348
   11.760    5.8031
   11.895    5.7925
   12.030    5.8978
   12.165    5.6977
   12.300    6.2981
   12.435    5.8768
   12.570    6.1085
   12.705    5.9189
   12.840    5.6661
   12.975    6.0348
   13.110    5.7399
   13.245    5.7188
   13.380    5.6029
   13.515    5.5082
   13.650    5.6661
   13.785    5.6556
   13.920    5.6135
   14.055    5.4976
   14.190    5.3081
   14.325    5.2554
   14.460    5.0974
   14.595    5.1711
   14.730    5.1501
   14.865    5.1711
   15.000    5.2238
   15.135    5.5714
   15.270    5.3818
   15.405    5.4239
   15.540    5.5819
   15.675    5.3502
   15.810    5.3923
   15.945    5.2027
   16.080    5.3923
   16.215    5.4555
   16.350    5.1817
   16.485    5.4239
   16.620    5.0869
   16.755    5.2870
   16.890    5.0553
   17.025    5.2659
   17.160    4.8973
   17.295    5.5187
   17.430    5.3607
   17.565    5.6240
   17.700    5.3923
   17.835    5.8662
   17.970    5.2449
   18.105    5.6135
   18.240    5.5608
   18.375    5.3291
   18.510    5.5608
   18.645    5.2238
   18.780    5.4450
   18.915    5.6872
   19.050    5.4555
   19.185    5.5608
   19.320    5.3291
   19.455    5.8662
   19.590    5.4344
   19.725    6.0979
   19.860    5.9505
   19.995    5.9926
   20.130    5.8873
   20.265    5.9610
   20.400    5.8873
   20.535    5.8768
   20.670    5.9610
   20.805    6.0242
   20.940    6.0979
   21.075    6.0348
   21.210    5.7504
   21.345    6.3296
   21.480    5.5819
   21.615    5.9610
   21.750    6.3612
   21.885    5.9821
   22.020    6.0348
   22.155    5.7925
   22.290    5.6767
   22.425    5.7188
   22.560    6.1190
   22.695    5.8662
   22.830    6.0664
   22.965    6.2349
   23.100    6.0242
   23.235    6.0979
   23.370    5.7504
   23.505    5.5608
   23.640    5.5503
   23.775    6.1611
   23.910    5.6240
   24.045    5.6661
   24.180    5.4239
   24.315    5.5714
   24.450    5.8136
   24.585    5.6451
   24.720    5.6556
   24.855    5.2870
   24.990    5.6345
   25.125    5.4555
   25.260    4.8657
   25.395    5.1185
   25.530    5.4134
   25.665    5.3818
   25.800    5.3923
   25.935    5.1080
   26.070    5.0974
   26.205    5.2870
   26.340    5.2554
   26.475    4.9500
   26.610    4.9710
   26.745    5.1501
   26.880    5.0974
   27.015    5.2765
   27.150    5.0448
   27.285    5.3081
   27.420    4.7499
   27.555    4.9500
   27.690    5.0342
   27.825    4.8131
   27.960    5.4344
   28.095    5.1185
   28.230    5.2554
   28.365    4.7604
   28.500    5.2765
   28.635    5.1080
   28.770    4.8973
   28.905    5.0342
   29.040    5.1395
   29.175    4.9605
   29.310    4.9605
   29.445    5.2238
   29.580    5.0764
   29.715    4.9289
   29.850    5.1606
   29.985    4.5919
   30.120    4.6340
   30.255    4.6445
   30.390    4.3707
   30.525    4.8131
   30.660    4.7709
   30.795    5.0764
   30.930    4.6024
   31.065    4.6340
   31.200    4.8657
   31.335    4.6235
   31.470    4.7604
   31.605    4.7288
   31.740    4.8341
   31.875    5.2133
   32.010    5.0237
   32.145    5.2765
   32.280    4.6761
   32.415    4.5287
   32.550    4.6130
   32.685    4.3813
   32.820    4.2865
   32.955    4.5076
   33.090    4.4655
   33.225    4.3181
   33.360    4.2233
   33.495    4.4655
   33.630    4.3918
   33.765    4.4866
   33.900    4.8236
   34.035    4.3602
   34.170    4.0126
   34.305    4.1706
   34.440    4.0548
   34.575    4.0442
   34.710    4.0126
   34.845    4.1180
   34.980    4.2443
   35.115    3.9705
   35.250    3.9600
   35.385    4.0126
   35.520    4.0969
   35.655    3.8020
   35.790    3.8336
   35.925    3.9705
   36.060    3.9284
   36.195    4.0337
   36.330    3.6335
   36.465    3.7809
   36.600    3.8231
   36.735    3.5914
   36.870    3.7177
   37.005    3.6862
   37.140    3.6862
   37.275    3.8968
   37.410    3.5703
   37.545    3.8968
   37.680    3.8020
   37.815    3.6546
   37.950    3.7177
   38.085    3.9179
   38.220    3.5914
   38.355    3.6546
   38.490    3.7599
   38.625    3.7915
   38.760    3.8020
   38.895    3.8336
   39.030    4.0864
   39.165    3.8441
   39.300    3.7599
   39.435    3.8441
   39.570    3.6967
   39.705    3.8547
   39.840    3.8125
   39.975    3.6124
   39.990    3.6335