File: data/PXRD/PXRD_KE-033_Cu-Ka1_capillary-1mm_5s-deg.xyd
    1.500   56.6719
    1.635   47.5513
    1.770   38.8204
    1.905   33.4071
    2.040   29.5103
    2.175   25.6556
    2.310   23.7283
    2.445   22.4855
    2.580   21.5482
    2.715   21.7062
    2.850   22.1064
    2.985   23.9916
    3.120   26.7193
    3.255   33.0700
    3.390   42.7278
    3.525   46.6351
    3.660   36.9879
    3.795   48.0779
    3.930   64.0864
    4.065   14.3339
    4.200    9.9737
    4.335    8.4466
    4.470    7.9937
    4.605    7.9621
    4.740    7.8357
    4.875    7.6988
    5.010    8.3307
    5.145    9.4365
    5.280   11.3955
    5.415   14.5656
    5.550   23.9179
    5.685    6.4350
    5.820    6.6561
    5.955    6.3296
    6.090    6.3612
    6.225    6.1611
    6.360    6.6561
    6.495    7.0353
    6.630    8.1095
    6.765   10.9742
    6.900    9.4892
    7.035    9.0153
    7.170    6.9616
    7.305    6.1927
    7.440    7.1827
    7.575    8.6993
    7.710   10.4055
    7.845   12.1643
    7.980    6.7615
    8.115    6.2033
    8.250    5.6872
    8.385    6.0453
    8.520    5.8873
    8.655    5.3291
    8.790    5.7820
    8.925    5.4239
    9.060    5.3081
    9.195    5.3923
    9.330    6.0348
    9.465    8.3939
    9.600   12.8594
    9.735    6.0032
    9.870    5.3712
   10.005    5.3818
   10.140    5.6661
   10.275    6.2770
   10.410    7.2143
   10.545    5.4660
   10.680    6.0558
   10.815    5.6872
   10.950    6.0558
   11.085    7.8252
   11.220    5.5819
   11.355    5.2449
   11.490    5.6029
   11.625    6.2559
   11.760    7.9516
   11.895    5.7399
   12.030    5.2133
   12.165    5.3397
   12.300    5.3607
   12.435    5.1080
   12.570    4.9289
   12.705    4.7393
   12.840    5.2554
   12.975    6.0348
   13.110    5.2449
   13.245    4.8341
   13.380    4.9710
   13.515    5.2765
   13.650    5.1922
   13.785    4.8447
   13.920    4.8447
   14.055    5.4028
   14.190    5.4766
   14.325    4.7183
   14.460    4.3813
   14.595    4.9078
   14.730    4.5498
   14.865    4.4128
   15.000    4.7183
   15.135    5.3818
   15.270    4.9710
   15.405    4.7709
   15.540    4.9921
   15.675    4.8868
   15.810    5.1395
   15.945    5.0448
   16.080    5.1711
   16.215    5.2449
   16.350    4.7393
   16.485    5.0869
   16.620    4.8236
   16.755    5.1922
   16.890    4.8447
   17.025    4.9921
   17.160    5.8978
   17.295    4.5287
   17.430    4.7815
   17.565    4.9394
   17.700    5.1080
   17.835    4.8341
   17.970    4.7815
   18.105    4.9394
   18.240    4.6130
   18.375    4.9921
   18.510    4.9816
   18.645    4.7499
   18.780    4.8341
   18.915    4.9816
   19.050    4.9710
   19.185    4.5182
   19.320    5.0237
   19.455    4.9184
   19.590    5.2975
   19.725    5.0658
   19.860    5.0026
   19.995    5.0448
   20.130    5.2449
   20.265    5.0026
   20.400    5.4871
   20.535    5.4450
   20.670    5.5292
   20.805    5.1185
   20.940    4.8657
   21.075    5.4976
   21.210    4.8131
   21.345    5.3607
   21.480    5.3081
   21.615    5.6029
   21.750    5.2975
   21.885    5.4871
   22.020    5.3081
   22.155    5.4976
   22.290    5.4134
   22.425    5.5503
   22.560    5.9505
   22.695    6.1717
   22.830    5.3818
   22.965    6.2665
   23.100    5.2343
   23.235    5.0869
   23.370    5.3607
   23.505    5.2659
   23.640    5.0448
   23.775    5.0974
   23.910    4.6551
   24.045    5.0237
   24.180    5.1501
   24.315    4.9184
   24.450    5.0974
   24.585    5.2133
   24.720    5.0026
   24.855    5.1395
   24.990    5.1817
   25.125    5.0026
   25.260    4.8973
   25.395    4.8868
   25.530    4.6551
   25.665    4.9078
   25.800    4.8552
   25.935    4.9184
   26.070    4.7604
   26.205    4.7815
   26.340    4.8447
   26.475    4.9710
   26.610    4.6656
   26.745    4.3918
   26.880    4.8657
   27.015    4.7920
   27.150    4.4866
   27.285    4.5919
   27.420    4.5814
   27.555    4.4760
   27.690    4.2338
   27.825    4.8025
   27.960    4.4234
   28.095    4.5498
   28.230    4.5182
   28.365    4.9394
   28.500    4.4444
   28.635    4.5708
   28.770    4.2549
   28.905    4.1917
   29.040    4.4760
   29.175    4.5076
   29.310    4.1601
   29.445    4.5814
   29.580    4.4128
   29.715    3.8968
   29.850    4.2865
   29.985    4.6656
   30.120    4.0442
   30.255    4.2654
   30.390    4.2865
   30.525    4.3497
   30.660    3.7704
   30.795    3.8125
   30.930    4.2127
   31.065    3.7704
   31.200    4.1074
   31.335    4.3602
   31.470    4.2970
   31.605    3.8757
   31.740    3.9600
   31.875    4.0021
   32.010    4.0758
   32.145    3.7915
   32.280    4.0232
   32.415    3.7072
   32.550    3.9810
   32.685    4.1496
   32.820    3.6019
   32.955    3.3807
   33.090    3.2859
   33.225    3.6335
   33.360    3.6546
   33.495    3.6230
   33.630    3.7283
   33.765    3.4860
   33.900    3.3913
   34.035    3.7809
   34.170    3.5808
   34.305    3.3913
   34.440    3.4544
   34.575    3.4755
   34.710    3.3702
   34.845    3.5808
   34.980    3.5387
   35.115    3.5071
   35.250    3.1806
   35.385    3.2227
   35.520    3.3491
   35.655    3.1912
   35.790    3.1385
   35.925    3.1701
   36.060    3.3491
   36.195    3.2965
   36.330    3.2859
   36.465    3.3913
   36.600    3.0753
   36.735    3.5914
   36.870    3.2859
   37.005    3.2017
   37.140    3.2017
   37.275    3.0332
   37.410    3.0753
   37.545    3.1490
   37.680    3.0964
   37.815    3.2122
   37.950    3.0858
   38.085    3.0753
   38.220    3.0016
   38.355    2.8120
   38.490    2.7699
   38.625    3.1174
   38.760    3.1385
   38.895    3.2122
   39.030    3.0753
   39.165    3.0753
   39.300    3.2543
   39.435    2.9910
   39.570    2.9279
   39.705    3.0858
   39.840    2.9279
   39.975    3.3281
   39.990    2.9068