File: data/PXRD/PXRD_KE-048-3_Cu-Ka1_capillary-1mm_5s-deg.xyd
    1.500   39.4523
    1.635   38.2517
    1.770   35.2923
    1.905   32.3749
    2.040   31.2059
    2.175   31.7641
    2.310   32.2696
    2.445   34.4708
    2.580   37.7672
    2.715   43.5492
    2.850   52.3223
    2.985   65.6767
    3.120   85.9610
    3.255  118.1464
    3.390  195.7873
    3.525  222.1696
    3.660   89.6788
    3.795  127.4776
    3.930  173.3860
    4.065   49.5945
    4.200   19.3154
    4.335   13.2596
    4.470   11.1743
    4.605   10.3002
    4.740    9.5313
    4.875    9.0574
    5.010    9.6261
    5.145    9.7841
    5.280    9.8052
    5.415    9.6367
    5.550    8.6783
    5.685    8.5940
    5.820    8.1622
    5.955    8.5097
    6.090    8.7625
    6.225    9.1627
    6.360    9.8684
    6.495   11.7009
    6.630   14.6919
    6.765   21.2217
    6.900   38.7783
    7.035   33.6177
    7.170   11.3955
    7.305   10.7636
    7.440   12.9015
    7.575   16.3665
    7.710   26.4034
    7.845   38.5993
    7.980   24.4023
    8.115   12.1327
    8.250    9.4787
    8.385    8.6783
    8.520    8.5413
    8.655    7.8252
    8.790    7.7936
    8.925    7.8989
    9.060    7.4671
    9.195    7.9621
    9.330    7.6988
    9.465    7.4039
    9.600    7.6356
    9.735    7.7093
    9.870    7.7830
   10.005    8.0569
   10.140    7.8989
   10.275    8.0885
   10.410    8.7730
   10.545    8.4255
   10.680    8.3939
   10.815    7.7199
   10.950    7.8673
   11.085    8.0358
   11.220    8.1938
   11.355    8.4044
   11.490    8.7309
   11.625    9.5945
   11.760   10.7846
   11.895    9.9421
   12.030    8.9731
   12.165    8.5729
   12.300    8.4255
   12.435    7.8568
   12.570    8.4150
   12.705    7.8041
   12.840    8.1095
   12.975    8.6993
   13.110    8.5940
   13.245    8.6361
   13.380    8.1938
   13.515    8.2886
   13.650    8.2886
   13.785    7.7936
   13.920    8.0779
   14.055    7.6672
   14.190    7.5829
   14.325    7.9831
   14.460    7.5092
   14.595    7.7409
   14.730    7.9094
   14.865    7.9305
   15.000    7.9305
   15.135    8.0885
   15.270    8.0042
   15.405    8.0885
   15.540    8.6677
   15.675    8.1938
   15.810    8.4571
   15.945    8.6783
   16.080    7.7725
   16.215    7.4460
   16.350    7.3407
   16.485    7.2880
   16.620    7.6461
   16.755    7.7514
   16.890    7.5197
   17.025    7.2038
   17.160    7.3828
   17.295    8.1622
   17.430    7.9305
   17.565    8.4255
   17.700    8.3096
   17.835    8.2675
   17.970    8.2254
   18.105    8.2359
   18.240    8.1411
   18.375    8.0042
   18.510    7.5092
   18.645    7.7514
   18.780    7.8146
   18.915    7.2775
   19.050    7.6251
   19.185    8.2043
   19.320    8.0253
   19.455    8.2043
   19.590    8.8573
   19.725    8.5940
   19.860    8.9731
   19.995    8.8046
   20.130    9.5419
   20.265    9.6893
   20.400    9.2680
   20.535    9.1311
   20.670    8.8678
   20.805    9.4681
   20.940    9.4576
   21.075    9.6682
   21.210    9.2575
   21.345    8.8468
   21.480    9.0574
   21.615    8.4781
   21.750    9.0995
   21.885    8.8889
   22.020    9.1417
   22.155    9.3418
   22.290    9.9631
   22.425    9.9526
   22.560    9.8368
   22.695    9.7420
   22.830    9.8578
   22.965    9.1101
   23.100    8.7309
   23.235    8.8889
   23.370    8.3623
   23.505    8.4992
   23.640    8.3939
   23.775    8.4255
   23.910    8.5940
   24.045    8.6783
   24.180    8.3939
   24.315    8.7309
   24.450    8.9415
   24.585    9.0574
   24.720    8.6993
   24.855    8.6151
   24.990    8.6467
   25.125    8.0147
   25.260    7.6672
   25.395    8.3202
   25.530    8.2675
   25.665    7.5408
   25.800    7.4987
   25.935    7.5935
   26.070    7.4250
   26.205    7.5303
   26.340    8.0042
   26.475    7.6883
   26.610    7.8673
   26.745    8.0358
   26.880    7.5092
   27.015    7.5829
   27.150    7.2565
   27.285    7.4882
   27.420    7.5829
   27.555    7.4671
   27.690    7.5197
   27.825    7.2459
   27.960    7.4882
   28.095    7.2986
   28.230    7.6567
   28.365    7.6145
   28.500    7.1827
   28.635    7.1933
   28.770    7.1933
   28.905    6.8668
   29.040    6.9721
   29.175    7.2565
   29.310    6.9721
   29.445    6.9932
   29.580    7.3723
   29.715    6.7193
   29.850    7.3302
   29.985    6.8352
   30.120    7.1406
   30.255    6.8984
   30.390    7.0879
   30.525    6.7299
   30.660    6.6035
   30.795    6.5719
   30.930    7.2143
   31.065    6.6245
   31.200    6.9300
   31.335    6.7509
   31.470    7.1406
   31.605    7.0563
   31.740    6.7088
   31.875    7.0142
   32.010    7.0248
   32.145    6.4771
   32.280    7.0879
   32.415    6.9826
   32.550    6.8036
   32.685    6.9300
   32.820    6.5403
   32.955    6.8036
   33.090    6.7615
   33.225    6.1401
   33.360    6.4034
   33.495    6.4982
   33.630    6.2243
   33.765    6.3612
   33.900    6.6456
   34.035    6.3191
   34.170    5.9821
   34.305    6.5192
   34.440    6.0664
   34.575    6.5403
   34.710    6.4350
   34.845    6.5719
   34.980    6.3402
   35.115    5.8241
   35.250    6.3718
   35.385    5.9294
   35.520    6.3296
   35.655    6.4666
   35.790    6.1401
   35.925    6.0979
   36.060    6.6351
   36.195    6.3086
   36.330    6.2981
   36.465    5.9505
   36.600    6.2243
   36.735    6.5298
   36.870    6.0137
   37.005    6.1822
   37.140    5.9084
   37.275    5.9294
   37.410    6.4455
   37.545    5.9610
   37.680    6.0979
   37.815    6.1717
   37.950    6.2875
   38.085    5.7083
   38.220    5.6977
   38.355    6.0032
   38.490    5.8768
   38.625    5.4871
   38.760    5.9400
   38.895    5.8241
   39.030    6.0979
   39.165    6.2454
   39.300    5.9505
   39.435    5.7820
   39.570    5.7504
   39.705    6.1717
   39.840    6.2559
   39.975    6.0032
   39.990    6.1717